Integrationstid 2s
Integration time [ms]: 2000,000
Averaging Nr. [scans]: 5
Smoothing Nr. [pixels]: 0
Data measured with spectrometer [name]: 1804350U2
Wave   ;Sample   ;Dark     ;Reference;Scope
[nm]   ;[counts] ;[counts] ;[counts] 

291,522; -292,887; -322,646;    0,000
291,691;   83,855;   66,249;    0,000
291,860;  117,773;   87,723;    0,000
292,028;  321,593;  287,545;    0,000
292,197; -230,562; -277,117;    0,000
292,366;  315,168;  359,758;    0,000
292,534;  147,153;  103,572;    0,000
292,703;  225,758;  175,447;    0,000
292,871; -340,207; -366,210;    0,000
293,040; -238,781; -221,978;    0,000
293,209;  536,700;  468,103;    0,000
293,377;   85,772;  102,233;    0,000
293,546;  -33,185;  -64,808;    0,000
293,715;  -42,710;   -3,453;    0,000
293,883;   92,561;   88,788;    0,000
294,052;  391,755;  372,223;    0,000
294,220;  -33,225;  -97,826;    0,000
294,389; -181,710; -199,253;    0,000
294,557; -121,692; -128,321;    0,000
294,726;  300,662;  285,980;    0,000
294,895; -320,405; -368,559;    0,000
295,063; -441,498; -468,247;    0,000
295,232;  -89,245; -161,932;    0,000
295,400;  360,768;  299,158;    0,000
295,569; -171,431; -171,591;    0,000
295,737; -240,841; -290,347;    0,000
295,906;  295,468;  268,461;    0,000
296,074;  518,097;  552,078;    0,000
296,243; -140,286; -192,156;    0,000
296,411;    8,570;   -9,946;    0,000
296,580;  -38,372; -106,357;    0,000
296,748;  278,977;  283,069;    0,000
296,917;  159,800;  125,916;    0,000
297,085;   79,328;   64,785;    0,000
297,254;  515,798;  490,781;    0,000
297,422;  717,538;  705,496;    0,000
297,591; -172,650; -261,168;    0,000
297,759; -289,115; -342,612;    0,000
297,928;  129,319;  127,480;    0,000
298,096;  171,215;  143,392;    0,000
298,265;  321,912;  322,264;    0,000
298,433;  -24,945;  -49,035;    0,000
298,601;  148,269;   66,351;    0,000
298,770;  520,973;  506,194;    0,000
298,938; -113,587; -128,143;    0,000
299,107; -163,277; -226,535;    0,000
299,275;  186,097;   96,833;    0,000
299,443;   84,168;   68,758;    0,000
299,612; -214,505; -301,262;    0,000
299,780; -199,028; -207,612;    0,000
299,949;  229,309;  179,724;    0,000
300,117;  259,061;  256,691;    0,000
300,285; -206,732; -181,539;    0,000
300,454;   83,363;   58,883;    0,000
300,622;  111,651;   66,380;    0,000
300,790;  466,123;  457,665;    0,000
300,959; -334,357; -332,481;    0,000
301,127; -173,705; -192,017;    0,000
301,296;  582,268;  550,861;    0,000
301,464; 1165,396; 1117,731;    0,000
301,632; -188,700; -204,026;    0,000
301,800; -127,286; -171,756;    0,000
301,969;  -75,223;  -73,576;    0,000
302,137;   24,771;    7,344;    0,000
302,305;   79,766;   81,868;    0,000
302,474; -113,176;  -58,587;    0,000
302,642;  105,040;   93,134;    0,000
302,810;   64,408;  129,621;    0,000
302,979; -180,404; -220,469;    0,000
303,147; -184,965; -184,141;    0,000
303,315;  400,552;  387,282;    0,000
303,483;  172,986;  199,775;    0,000
303,652; -170,575; -263,297;    0,000
303,820;  -23,703;  -48,122;    0,000
303,988;  705,294;  669,093;    0,000
304,156;  195,250;  211,090;    0,000
304,325;  258,335;  179,356;    0,000
304,493; -187,346; -200,880;    0,000
304,661;  -72,337;  -75,575;    0,000
304,829;  404,939;  376,386;    0,000
304,998;   78,959;   28,853;    0,000
305,166;  -59,189;  -78,238;    0,000
305,334;  260,302;  222,753;    0,000
305,502;  737,247;  728,304;    0,000
305,670; -117,281; -204,320;    0,000
305,839;  -71,314;  -36,967;    0,000
306,007;  338,435;  292,214;    0,000
306,175;   61,608;   80,176;    0,000
306,343; -204,996; -230,409;    0,000
306,511;  -27,857;  -30,784;    0,000
306,679;  129,499;  126,968;    0,000
306,848;  305,114;  282,799;    0,000
307,016; -174,133; -184,584;    0,000
307,184;  -90,738;  -93,465;    0,000
307,352;   46,855;   24,165;    0,000
307,520;  108,064;   72,270;    0,000
307,688;   61,356;   10,713;    0,000
307,856;  -78,578;  -88,483;    0,000
308,024;  -32,924;  -60,878;    0,000
308,193;  241,313;  211,154;    0,000
308,361;    2,940;   12,392;    0,000
308,529;  -38,862;  -87,859;    0,000
308,697;  268,689;  188,618;    0,000
308,865;  361,938;  329,296;    0,000
309,033; -335,349; -345,020;    0,000
309,201;  -15,280;   14,525;    0,000
309,369;  -81,866;  -29,489;    0,000
309,537;  151,028;  126,288;    0,000
309,705; -213,176; -243,142;    0,000
309,873; -135,843; -151,998;    0,000
310,041;  311,682;  256,847;    0,000
310,209;  131,628;  156,688;    0,000
310,377; -228,220; -265,190;    0,000
310,545;  129,478;  157,772;    0,000
310,713;  226,547;  196,807;    0,000
310,881;  386,909;  364,724;    0,000
311,049; -341,763; -397,252;    0,000
311,217; -323,673; -330,705;    0,000
311,385;  -12,328;  -66,109;    0,000
311,553;  224,522;  262,260;    0,000
311,721; -189,015; -191,315;    0,000
311,889; -287,633; -277,687;    0,000
312,057;  271,193;  214,745;    0,000
312,225;  259,702;  195,753;    0,000
312,393; -119,707; -125,152;    0,000
312,561;  247,536;  279,806;    0,000
312,729;  429,291;  381,068;    0,000
312,897;  277,906;  280,699;    0,000
313,065; -277,230; -319,946;    0,000
313,233;   74,837;  104,754;    0,000
313,401;  -13,078;  -74,219;    0,000
313,569; -129,246; -136,183;    0,000
313,737; -190,766; -220,231;    0,000
313,905;  -15,012;  -10,775;    0,000
314,072;  331,035;  293,459;    0,000
314,240;  610,256;  601,970;    0,000
314,408; -302,821; -349,435;    0,000
314,576;   77,703;   57,559;    0,000
314,744;  328,172;  317,149;    0,000
314,912;  678,202;  632,611;    0,000
315,080; -254,247; -321,473;    0,000
315,248; -115,211; -155,040;    0,000
315,415;  303,224;  268,658;    0,000
315,583;  198,238;  155,399;    0,000
315,751;  -13,641;  -60,102;    0,000
315,919;  -32,066;  -65,489;    0,000
316,087;  194,161;  154,788;    0,000
316,255;  515,133;  408,221;    0,000
316,422; -251,849; -274,407;    0,000
316,590; -205,785; -230,453;    0,000
316,758;  659,030;  607,178;    0,000
316,926;  134,762;  142,238;    0,000
317,094;  -79,791; -130,373;    0,000
317,261;  -99,331; -100,894;    0,000
317,429;  110,570;   76,254;    0,000
317,597;  379,642;  403,384;    0,000
317,765;   28,161;  -59,212;    0,000
317,933; -258,591; -274,018;    0,000
318,100;   94,132;   68,131;    0,000
318,268;   43,830;   16,578;    0,000
318,436;  -69,350; -105,110;    0,000
318,604;  -55,963; -100,007;    0,000
318,771;  190,089;  154,818;    0,000
318,939;  121,593;  136,745;    0,000
319,107; -218,987; -264,388;    0,000
319,275;  403,675;  434,432;    0,000
319,442;   15,302;  -25,647;    0,000
319,610;  837,251;  804,535;    0,000
319,778;    3,947;  -37,593;    0,000
319,945; -402,924; -398,123;    0,000
320,113;  661,605;  641,952;    0,000
320,281;  321,942;  286,371;    0,000
320,448;  -93,526; -161,213;    0,000
320,616; -344,758; -363,287;    0,000
320,784;  245,508;  237,079;    0,000
320,951;  620,292;  561,597;    0,000
321,119;   37,850;   -6,355;    0,000
321,287; -103,291; -133,476;    0,000
321,454;  298,887;  239,322;    0,000
321,622;  275,120;  287,770;    0,000
321,790; -165,881; -235,965;    0,000
321,957;  -36,254;  -52,643;    0,000
322,125;   -1,182;  -31,868;    0,000
322,292;  -41,904;  -52,772;    0,000
322,460; -123,017; -174,211;    0,000
322,628; -165,142; -160,650;    0,000
322,795;  413,765;  428,863;    0,000
322,963;  196,998;  174,981;    0,000
323,130; -278,838; -326,407;    0,000
323,298;    6,880;  -12,048;    0,000
323,466;  288,728;  261,546;    0,000
323,633;  724,926;  682,250;    0,000
323,801; -286,245; -308,093;    0,000
323,968;  185,880;  242,507;    0,000
324,136; -163,436; -258,827;    0,000
324,303;   20,014;  -48,098;    0,000
324,471; -285,166; -352,592;    0,000
324,638;  -98,480;  -91,830;    0,000
324,806;  216,921;  169,130;    0,000
324,973;  175,582;  142,544;    0,000
325,141;  -27,745;  -36,835;    0,000
325,308;  267,760;  275,143;    0,000
325,476;  149,358;   54,363;    0,000
325,643;  291,816;  244,037;    0,000
325,811;   14,579;  -61,796;    0,000
325,978;   69,258;   88,950;    0,000
326,146; -116,926; -152,013;    0,000
326,313;  386,820;  364,628;    0,000
326,481;  -12,768;  -86,682;    0,000
326,648;  -49,482; -102,171;    0,000
326,816;  510,594;  427,951;    0,000
326,983; 1221,658; 1107,150;    0,000
327,151;    4,174;   -4,916;    0,000
327,318;  122,285;  108,627;    0,000
327,486;  292,529;  270,636;    0,000
327,653;  386,564;  331,128;    0,000
327,820; -184,154; -285,185;    0,000
327,988; -262,607; -360,610;    0,000
328,155;   66,626;  -46,607;    0,000
328,323;  488,679;  435,146;    0,000
328,490;   76,448;   -5,890;    0,000
328,657; -160,867; -204,295;    0,000
328,825;  265,570;  213,054;    0,000
328,992;  481,966;  402,468;    0,000
329,159; -210,427; -253,961;    0,000
329,327; -163,409; -231,150;    0,000
329,494;  553,579;  461,365;    0,000
329,662;  145,923;   35,910;    0,000
329,829;  197,064;  118,631;    0,000
329,996; -111,199; -251,394;    0,000
330,164;  167,661;   69,691;    0,000
330,331;  264,236;  217,904;    0,000
330,498; -201,034; -305,332;    0,000
330,666; -158,131; -216,249;    0,000
330,833;  299,825;  185,503;    0,000
331,000;  794,896;  715,788;    0,000
331,167;  562,640;  431,734;    0,000
331,335; -204,649; -215,763;    0,000
331,502;  278,714;  174,199;    0,000
331,669;  111,906;   54,984;    0,000
331,837; -205,984; -279,803;    0,000
332,004; -128,929; -150,199;    0,000
332,171;   -4,905;  -96,062;    0,000
332,338;  448,494;  365,293;    0,000
332,506;   79,418;   10,732;    0,000
332,673;  114,393;   50,945;    0,000
332,840;  178,786;   73,575;    0,000
333,007;  388,624;  271,697;    0,000
333,175; -151,529; -274,554;    0,000
333,342; -147,090; -247,225;    0,000
333,509;  206,542;  120,171;    0,000
333,676;  408,611;  350,517;    0,000
333,843; -250,989; -354,438;    0,000
334,011;  372,446;  247,859;    0,000
334,178;  135,033;   51,163;    0,000
334,345;  390,661;  286,646;    0,000
334,512;   90,409;  -59,573;    0,000
334,679;   -0,444;  -94,487;    0,000
334,847;  264,638;  165,199;    0,000
335,014;   80,944;   41,261;    0,000
335,181; -152,718; -278,953;    0,000
335,348; -135,830; -176,501;    0,000
335,515;  433,328;  258,585;    0,000
335,682;  493,294;  396,493;    0,000
335,849; -254,898; -375,247;    0,000
336,017; -233,114; -325,523;    0,000
336,184;   60,396; -101,469;    0,000
336,351;  427,695;  308,538;    0,000
336,518; -236,604; -400,069;    0,000
336,685; -210,924; -347,723;    0,000
336,852;  185,173;   15,278;    0,000
337,019;  728,357;  585,757;    0,000
337,186;  -89,491; -188,876;    0,000
337,353; -117,668; -215,385;    0,000
337,520;  190,819;   64,777;    0,000
337,687;  469,138;  295,341;    0,000
337,854; -245,876; -370,800;    0,000
338,022; -155,038; -235,407;    0,000
338,189;   71,795;  -65,359;    0,000
338,356;  577,968;  426,758;    0,000
338,523;   41,001; -113,834;    0,000
338,690;  205,807;   85,331;    0,000
338,857;  527,488;  353,812;    0,000
339,024;  747,077;  598,966;    0,000
339,191;  -47,693; -215,527;    0,000
339,358;  -47,746; -212,325;    0,000
339,525;  435,468;  261,661;    0,000
339,692;  349,672;  189,091;    0,000
339,859; -125,159; -299,776;    0,000
340,026;   72,399; -117,129;    0,000
340,193;   99,681;  -90,003;    0,000
340,360;  284,488;  189,012;    0,000
340,527;  435,112;  224,709;    0,000
340,694; -247,304; -414,172;    0,000
340,861;  649,824;  376,813;    0,000
341,027;  471,507;  299,473;    0,000
341,194;  -28,796; -275,209;    0,000
341,361;  -14,093; -214,527;    0,000
341,528;  391,378;  179,959;    0,000
341,695;  573,895;  385,138;    0,000
341,862;  208,977;  -62,531;    0,000
342,029;  253,991;   89,410;    0,000
342,196;  353,238;  137,599;    0,000
342,363;  630,597;  398,175;    0,000
342,530; -158,007; -388,055;    0,000
342,697;  440,382;  265,744;    0,000
342,863;  266,723;   -2,935;    0,000
343,030;  483,452;  258,985;    0,000
343,197;  -96,349; -331,465;    0,000
343,364;  147,204;  -52,854;    0,000
343,531;  489,763;  237,283;    0,000
343,698;  853,001;  629,606;    0,000
343,865;   41,030; -198,461;    0,000
344,031;   77,731; -158,874;    0,000
344,198;  389,178;  143,959;    0,000
344,365;  434,741;  210,882;    0,000
344,532;   -1,950; -322,310;    0,000
344,699;  207,123;  -27,890;    0,000
344,866;  680,808;  420,021;    0,000
345,032;  468,135;  138,756;    0,000
345,199;  460,877;  170,366;    0,000
345,366;  577,357;  285,957;    0,000
345,533;  298,826;  -41,207;    0,000
345,699;  932,802;  625,295;    0,000
345,866;  -75,781; -381,578;    0,000
346,033;  155,651; -131,020;    0,000
346,200;  252,515;  -95,950;    0,000
346,366;  872,809;  602,982;    0,000
346,533;   21,269; -280,449;    0,000
346,700;   25,581; -314,901;    0,000
346,867;  396,605;   68,397;    0,000
347,033;  452,660;   89,285;    0,000
347,200;  555,558;  207,408;    0,000
347,367;  355,660;  -42,115;    0,000
347,534;  792,431;  331,784;    0,000
347,700;  833,499;  385,368;    0,000
347,867;  208,889; -276,027;    0,000
348,034; 1160,068;  612,661;    0,000
348,200; 1067,082;  481,447;    0,000
348,367; 1059,209;  465,066;    0,000
348,534;  266,799; -228,129;    0,000
348,700;  540,306;   33,784;    0,000
348,867;  564,473;  122,336;    0,000
349,034;  832,195;  393,841;    0,000
349,200;  -16,953; -462,651;    0,000
349,367;  193,004; -166,009;    0,000
349,534;  343,408;    8,621;    0,000
349,700; 1131,497;  763,278;    0,000
349,867;  170,567; -159,687;    0,000
350,033;  331,709;  -79,676;    0,000
350,200;  541,939;  130,031;    0,000
350,367;  739,854;  411,720;    0,000
350,533;  229,605; -266,203;    0,000
350,700;   93,267; -276,984;    0,000
350,866;  683,358;  316,808;    0,000
351,033;  425,950;   84,387;    0,000
351,200;  210,275; -185,968;    0,000
351,366;    2,772; -368,967;    0,000
351,533;  721,498;  355,884;    0,000
351,699;  785,412;  336,522;    0,000
351,866;  203,418; -142,868;    0,000
352,032;  172,886; -210,123;    0,000
352,199;  683,016;  244,637;    0,000
352,365;  389,787;   87,420;    0,000
352,532;  308,988;  -82,575;    0,000
352,698;  307,538;  -78,059;    0,000
352,865;  588,108;  127,634;    0,000
353,031;  561,609;  211,427;    0,000
353,198;  332,853;  -86,570;    0,000
353,364;  -45,116; -453,218;    0,000
353,531;  636,275;  188,432;    0,000
353,697;  586,671;  205,041;    0,000
353,864;  464,751;    5,393;    0,000
354,030;   40,564; -350,227;    0,000
354,197;  645,200;  220,516;    0,000
354,363;  739,021;  273,473;    0,000
354,530;  288,429; -108,667;    0,000
354,696;    1,292; -398,758;    0,000
354,863;  759,813;  289,012;    0,000
355,029;  917,873;  517,581;    0,000
355,195;  -43,270; -471,319;    0,000
355,362;  720,987;  217,580;    0,000
355,528;  889,381;  370,299;    0,000
355,695; 1120,249;  627,439;    0,000
355,861;  397,940;  -50,163;    0,000
356,027;  250,473; -200,264;    0,000
356,194;  872,416;  363,037;    0,000
356,360;  784,129;  384,675;    0,000
356,527;  190,622; -324,238;    0,000
356,693;  100,989; -357,240;    0,000
356,859;  713,235;  236,459;    0,000
357,026;  563,035;  125,498;    0,000
357,192;   45,509; -432,076;    0,000
357,358;  716,646;  207,615;    0,000
357,525;  863,084;  306,137;    0,000
357,691;  592,384;  124,640;    0,000
357,857;  299,940; -233,163;    0,000
358,024;  647,438;  145,638;    0,000
358,190;  625,274;   83,942;    0,000
358,356;  804,145;  304,112;    0,000
358,523;  142,981; -397,101;    0,000
358,689;  -39,587; -494,388;    0,000
358,855;  542,412;   50,367;    0,000
359,022;  734,705;  226,894;    0,000
359,188;   53,386; -476,225;    0,000
359,354;  265,171; -317,056;    0,000
359,520;  707,869;  193,151;    0,000
359,687; 1189,320;  642,525;    0,000
359,853;  285,998; -215,219;    0,000
360,019;  224,667; -267,984;    0,000
360,185;  485,718;  -71,210;    0,000
360,352;  895,427;  398,798;    0,000
360,518;  124,471; -426,959;    0,000
360,684;  577,645;   48,809;    0,000
360,850;  584,215;   44,947;    0,000
361,016;  789,486;  300,633;    0,000
361,183;  149,789; -381,485;    0,000
361,349;  330,908; -212,921;    0,000
361,515;  663,016;  153,597;    0,000
361,681;  875,142;  353,371;    0,000
361,847;  496,155;  -28,177;    0,000
362,014;   40,855; -498,435;    0,000
362,180;  715,247;  219,504;    0,000
362,346;  541,497;   50,678;    0,000
362,512;  389,029; -185,751;    0,000
362,678;  283,349; -222,503;    0,000
362,844;  773,959;  262,453;    0,000
363,010;  886,432;  428,673;    0,000
363,177;  306,958; -226,192;    0,000
363,343;   67,836; -450,096;    0,000
363,509;  538,866;    7,766;    0,000
363,675;  601,006;  116,442;    0,000
363,841;  411,477;  -96,189;    0,000
364,007;  475,774; -106,916;    0,000
364,173; 1136,423;  620,368;    0,000
364,339;  732,676;  204,077;    0,000
364,505;  253,112; -333,491;    0,000
364,671;   86,521; -427,385;    0,000
364,838; 1172,305;  441,094;    0,000
365,004; 1300,312;  790,864;    0,000
365,170;   41,684; -516,018;    0,000
365,336;  384,044; -191,120;    0,000
365,502; 1028,728;  474,301;    0,000
365,668;  730,378;  167,759;    0,000
365,834;  353,312; -250,891;    0,000
366,000;  349,163; -224,917;    0,000
366,166;  981,949;  298,103;    0,000
366,332; 1102,584;  523,440;    0,000
366,498;  625,085;  -59,812;    0,000
366,664;  299,737; -298,749;    0,000
366,830;  747,583;  110,234;    0,000
366,996;  761,416;  131,437;    0,000
367,162;  513,253; -118,970;    0,000
367,328;  467,921; -195,785;    0,000
367,494; 1232,729;  519,836;    0,000
367,660;  833,131;  138,526;    0,000
367,826;  198,393; -470,255;    0,000
367,992;  295,277; -476,789;    0,000
368,158; 1482,093;  701,448;    0,000
368,323; 1024,332;  264,415;    0,000
368,489;  366,929; -437,409;    0,000
368,655;  377,429; -384,867;    0,000
368,821; 1035,027;  196,082;    0,000
368,987; 1268,748;  464,652;    0,000
369,153;  686,147;  -56,038;    0,000
369,319; 1028,252;  298,785;    0,000
369,485;  603,200; -134,639;    0,000
369,651; 1144,427;  436,753;    0,000
369,817;  131,326; -548,150;    0,000
369,982;  745,230;   99,739;    0,000
370,148;  736,942;   93,726;    0,000
370,314; 1185,497;  524,078;    0,000
370,480;  422,471; -178,599;    0,000
370,646;  -32,193; -580,269;    0,000
370,812;  771,022;  142,317;    0,000
370,978;  742,234;  170,853;    0,000
371,143;  776,019;   90,538;    0,000
371,309;  454,388; -164,775;    0,000
371,475;  580,232;  -55,082;    0,000
371,641;  857,231;  263,828;    0,000
371,807; 1228,977;  559,469;    0,000
371,972;  626,827;  -16,002;    0,000
372,138;  735,102;  138,153;    0,000
372,304;  833,025;  269,903;    0,000
372,470;  217,305; -381,861;    0,000
372,636;  530,097; -111,367;    0,000
372,801;  357,157; -247,643;    0,000
372,967;  969,173;  366,039;    0,000
373,133;   29,569; -565,391;    0,000
373,299;  475,221; -155,327;    0,000
373,464; 1184,353;  593,527;    0,000
373,630;  837,666;  246,611;    0,000
373,796;  226,104; -392,751;    0,000
373,961;  677,462;   -8,665;    0,000
374,127;  679,020;   77,583;    0,000
374,293;  750,977;  185,424;    0,000
374,459;  207,290; -388,092;    0,000
374,624;  433,051; -183,620;    0,000
374,790;  735,238;   91,799;    0,000
374,956; 1084,817;  448,887;    0,000
375,121;  608,051;  -41,665;    0,000
375,287;  392,734; -191,734;    0,000
375,453;  949,685;  287,343;    0,000
375,618; 1067,357;  419,157;    0,000
375,784;  388,813; -213,788;    0,000
375,950;  612,448;  -14,645;    0,000
376,115;  930,288;  285,012;    0,000
376,281;  896,716;  344,940;    0,000
376,447;  251,308; -341,921;    0,000
376,612;  440,512; -199,691;    0,000
376,778; 1441,037;  770,148;    0,000
376,943;  852,129;  286,830;    0,000
377,109;  431,658; -232,050;    0,000
377,275;  461,458; -176,295;    0,000
377,440;  690,056;   42,410;    0,000
377,606;  507,687; -111,878;    0,000
377,771;  743,516;  138,940;    0,000
377,937;  408,280; -251,048;    0,000
378,102; 1107,393;  395,145;    0,000
378,268;  718,934;  136,066;    0,000
378,434;  435,985; -204,670;    0,000
378,599;  159,750; -535,413;    0,000
378,765;  923,245;  233,570;    0,000
378,930;  938,931;  269,926;    0,000
379,096;  421,551; -224,607;    0,000
379,261;  530,341; -148,918;    0,000
379,427; 1362,405;  643,597;    0,000
379,592; 1298,075;  562,632;    0,000
379,758;  265,024; -538,942;    0,000
379,923;  679,192; -129,545;    0,000
380,089; 1065,657;  269,460;    0,000
380,254;  885,779;  221,404;    0,000
380,420;  574,413; -176,788;    0,000
380,585;  451,789; -261,085;    0,000
380,751;  551,319; -121,920;    0,000
380,916; 1191,050;  468,645;    0,000
381,081;  234,212; -510,594;    0,000
381,247;  327,043; -327,081;    0,000
381,412;  841,846;  136,015;    0,000
381,578; 1203,466;  434,966;    0,000
381,743;  327,989; -373,240;    0,000
381,909;  253,696; -380,212;    0,000
382,074;  642,803;  -28,744;    0,000
382,239;  812,169;   86,409;    0,000
382,405;  301,366; -399,932;    0,000
382,570;  471,145; -228,688;    0,000
382,736;  639,010;  -95,328;    0,000
382,901; 1210,452;  475,024;    0,000
383,066;  161,949; -530,058;    0,000
383,232;  815,790;   75,366;    0,000
383,397;  961,544;  170,306;    0,000
383,562;  957,159;  146,298;    0,000
383,728;  344,293; -460,752;    0,000
383,893;  909,794;  107,596;    0,000
384,058; 1181,614;  421,302;    0,000
384,224;  928,637;  240,193;    0,000
384,389;  301,672; -480,709;    0,000
384,554;  537,490; -229,092;    0,000
384,720;  890,872;  153,291;    0,000
384,885;  939,364;  120,373;    0,000
385,050;  555,873; -262,864;    0,000
385,216;  579,396; -205,269;    0,000
385,381; 1079,433;  226,363;    0,000
385,546; 1849,170; 1022,454;    0,000
385,711;  431,672; -340,709;    0,000
385,877;  528,659; -305,005;    0,000
386,042; 1270,673;  321,581;    0,000
386,207;  907,824;   25,697;    0,000
386,372; 1060,240;  140,095;    0,000
386,538;  720,957; -202,043;    0,000
386,703;  850,920;  -80,075;    0,000
386,868; 1076,958;  114,208;    0,000
387,033;  703,773; -348,361;    0,000
387,199;  758,108; -234,166;    0,000
387,364; 1047,293;  162,248;    0,000
387,529; 1136,643;  357,519;    0,000
387,694;  417,467; -417,145;    0,000
387,859;  630,096; -314,212;    0,000
388,024;  974,392; -123,900;    0,000
388,190; 1677,234;  348,008;    0,000
388,355;  879,639; -343,511;    0,000
388,520;  601,831; -392,016;    0,000
388,685; 1142,476;  265,522;    0,000
388,850; 1552,373;  500,039;    0,000
389,015;  697,049; -508,000;    0,000
389,181;  600,061; -211,625;    0,000
389,346;  918,464;   88,231;    0,000
389,511; 1504,923;  718,510;    0,000
389,676;  372,519; -298,520;    0,000
389,841;  776,734;   20,911;    0,000
390,006;  889,694;  192,693;    0,000
390,171; 1145,414;  495,902;    0,000
390,336;  404,138; -257,459;    0,000
390,501;  446,327; -318,505;    0,000
390,666;  869,828;  159,843;    0,000
390,832;  934,880;  276,707;    0,000
390,997;  498,430; -275,777;    0,000
391,162;  866,763;  113,683;    0,000
391,327;  767,357;  -42,643;    0,000
391,492; 1030,283;  344,292;    0,000
391,657;  313,960; -451,257;    0,000
391,822;  242,462; -458,065;    0,000
391,987;  626,850;  -45,755;    0,000
392,152; 1151,160;  495,143;    0,000
392,317;  399,862; -300,265;    0,000
392,482;  180,905; -499,706;    0,000
392,647; 1043,727;  300,540;    0,000
392,812; 1327,882;  648,047;    0,000
392,977;  519,842; -184,571;    0,000
393,142;  334,314; -274,356;    0,000
393,307;  751,742;   77,926;    0,000
393,472;  784,806;   97,881;    0,000
393,637;  218,467; -470,745;    0,000
393,802;  512,329; -188,209;    0,000
393,967;  655,689;  -41,343;    0,000
394,132; 1085,232;  441,518;    0,000
394,296;  486,095; -249,017;    0,000
394,461;  719,262;   31,335;    0,000
394,626; 1003,279;  299,462;    0,000
394,791;  717,497;   30,833;    0,000
394,956;  441,604; -266,409;    0,000
395,121;  427,720; -274,630;    0,000
395,286;  673,695;   -5,456;    0,000
395,451;  702,099;   49,013;    0,000
395,616;  534,895; -156,617;    0,000
395,781;  353,742; -330,829;    0,000
395,945;  768,402;   94,611;    0,000
396,110; 1163,804;  404,391;    0,000
396,275;  442,496; -221,172;    0,000
396,440;  453,350; -175,168;    0,000
396,605; 1083,745;  346,912;    0,000
396,770; 1034,050;  170,045;    0,000
396,935; 1191,683; -302,508;    0,000
397,099; 1300,418; -373,468;    0,000
397,264; 1153,500;  120,658;    0,000
397,429;  787,954;   68,417;    0,000
397,594;  383,336; -314,154;    0,000
397,759;  465,464; -144,285;    0,000
397,923;  669,130;   45,881;    0,000
398,088;  866,578;  230,475;    0,000
398,253;  957,015;  274,192;    0,000
398,418;  448,701; -138,492;    0,000
398,582;  749,404;  119,991;    0,000
398,747;  789,215;  172,147;    0,000
398,912;  236,884; -432,463;    0,000
399,077;  503,647; -177,051;    0,000
399,241;  926,686;  264,833;    0,000
399,406;  974,105;  353,094;    0,000
399,571;  128,392; -426,100;    0,000
399,736;  346,987; -291,736;    0,000
399,900;  608,449;   31,439;    0,000
400,065;  872,759;  292,298;    0,000
400,230;  358,624; -274,542;    0,000
400,394;  513,733;  -86,779;    0,000
400,559;  573,390;    4,205;    0,000
400,724;  522,901;  -42,092;    0,000
400,888;  165,286; -421,123;    0,000
401,053;  331,567; -267,287;    0,000
401,218;  891,432;  340,918;    0,000
401,382;  597,144;   28,467;    0,000
401,547;  569,728;   32,701;    0,000
401,712;  188,480; -406,248;    0,000
401,876;  818,017;  238,687;    0,000
402,041; 1035,289;  431,418;    0,000
402,206;  292,749; -336,303;    0,000
402,370;  442,628; -124,673;    0,000
402,535;  734,204;  105,746;    0,000
402,699;  599,172;  -76,212;    0,000
402,864;  222,940; -483,208;    0,000
403,029;  297,184; -346,676;    0,000
403,193;  832,220;  110,228;    0,000
403,358;  716,889;   73,818;    0,000
403,522;  679,476;   75,477;    0,000
403,687;  227,484; -393,218;    0,000
403,851;  804,222;  123,962;    0,000
404,016; 1030,114;  387,244;    0,000
404,181;  426,913; -252,046;    0,000
404,345;  420,159; -283,108;    0,000
404,510;  745,998;   35,865;    0,000
404,674;  885,396;  233,731;    0,000
404,839;  669,163;  -19,317;    0,000
405,003;  499,653; -199,086;    0,000
405,168; 1062,593;  347,145;    0,000
405,332;  934,781;  230,655;    0,000
405,497;  580,582; -135,256;    0,000
405,661;  291,827; -369,763;    0,000
405,826; 1086,734;  377,666;    0,000
405,990;  862,400;  129,916;    0,000
406,155;  654,032; -120,482;    0,000
406,319;  864,165;   46,463;    0,000
406,483;  671,268; -160,139;    0,000
406,648; 1033,288;  236,612;    0,000
406,812;  641,620; -156,733;    0,000
406,977;  668,463; -126,575;    0,000
407,141;  867,452;  105,824;    0,000
407,306; 1073,244;  359,564;    0,000
407,470;  338,291; -367,047;    0,000
407,634;  559,121; -100,385;    0,000
407,799;  837,697;  136,878;    0,000
407,963;  876,890;  182,263;    0,000
408,128;  407,572; -244,367;    0,000
408,292;  383,382; -247,056;    0,000
408,456;  335,921; -283,625;    0,000
408,621; 1057,658;  377,350;    0,000
408,785;  387,292; -242,803;    0,000
408,949;  516,778; -139,641;    0,000
409,114;  655,294;   13,293;    0,000
409,278;  854,365;  184,618;    0,000
409,442;  444,377; -209,891;    0,000
409,607;  853,408;   94,421;    0,000
409,771; 1351,299;  386,368;    0,000
409,935; 1524,575;  -37,026;    0,000
410,100; 3392,920; -283,475;    0,000
410,264; 4171,172; -281,812;    0,000
410,428; 2032,742;  -31,474;    0,000
410,593; 1174,701;  191,308;    0,000
410,757;  672,671; -111,154;    0,000
410,921; 1233,824;  455,813;    0,000
411,085;  900,550;   97,387;    0,000
411,250;  498,634; -220,547;    0,000
411,414;  321,196; -366,114;    0,000
411,578;  401,310; -280,186;    0,000
411,742; 1146,720;  360,125;    0,000
411,907;  581,577; -154,131;    0,000
412,071;  357,794; -487,804;    0,000
412,235;  648,774; -127,071;    0,000
412,399; 1100,621;  367,073;    0,000
412,564;  984,880;  341,707;    0,000
412,728;  374,792; -225,945;    0,000
412,892;  254,581; -246,345;    0,000
413,056;  653,865;   96,876;    0,000
413,220; 1072,399;  461,671;    0,000
413,384;  380,700; -157,781;    0,000
413,549;  354,836; -209,496;    0,000
413,713;  377,540;  -70,208;    0,000
413,877;  717,424;  194,058;    0,000
414,041;  -45,506; -528,707;    0,000
414,205;  337,538; -150,504;    0,000
414,369;  253,757; -232,598;    0,000
414,533;  756,338;  203,741;    0,000
414,698;  444,153;  -86,673;    0,000
414,862;  136,307; -430,727;    0,000
415,026;  943,817;  357,082;    0,000
415,190; 1165,932;  642,176;    0,000
415,354;   66,676; -496,278;    0,000
415,518;  276,875; -327,929;    0,000
415,682;  796,358;  190,047;    0,000
415,846;  797,150;  228,387;    0,000
416,010;  187,195; -423,959;    0,000
416,174;  734,630;  123,378;    0,000
416,338;  917,465;  280,921;    0,000
416,502;  996,269;  345,706;    0,000
416,667;  439,072; -231,909;    0,000
416,831;  461,552; -170,118;    0,000
416,995;  808,318;  135,274;    0,000
417,159;  762,722;   10,860;    0,000
417,323;  273,718; -456,771;    0,000
417,487;  609,987; -164,136;    0,000
417,651; 1063,970;  189,299;    0,000
417,815;  825,426;  -50,007;    0,000
417,979;  473,052; -287,376;    0,000
418,143;  375,798; -442,335;    0,000
418,307; 1018,570;  279,054;    0,000
418,471; 1165,864;  480,670;    0,000
418,634;  172,102; -411,847;    0,000
418,798;  440,112; -199,936;    0,000
418,962;  878,538;  215,096;    0,000
419,126; 1145,331;  484,171;    0,000
419,290;  133,448; -438,206;    0,000
419,454;  418,361; -222,212;    0,000
419,618;  864,055;  182,765;    0,000
419,782; 1023,120;  376,125;    0,000
419,946;  210,651; -393,265;    0,000
420,110;  558,619;  -98,378;    0,000
420,274;  540,792;  -71,945;    0,000
420,438;  774,906;   77,784;    0,000
420,601;  280,798; -461,980;    0,000
420,765;  424,647; -259,096;    0,000
420,929;  959,079;  242,862;    0,000
421,093;  904,153;  148,127;    0,000
421,257;  383,344; -396,178;    0,000
421,421;  304,498; -345,277;    0,000
421,585;  690,265;   52,876;    0,000
421,748;  820,871;  166,686;    0,000
421,912;  215,094; -303,107;    0,000
422,076;  360,151; -183,763;    0,000
422,240;  679,681;   62,397;    0,000
422,404;  866,978;  210,559;    0,000
422,568;  155,841; -420,821;    0,000
422,731;  563,901;    1,108;    0,000
422,895;  709,668;  239,261;    0,000
423,059; 1133,542;  599,771;    0,000
423,223;  558,569;   -6,591;    0,000
423,386;   32,069; -491,649;    0,000
423,550;  540,372;   28,388;    0,000
423,714;  409,774;  -42,071;    0,000
423,878;  495,826;  -31,852;    0,000
424,041;  -41,290; -534,986;    0,000
424,205;  576,578;   95,714;    0,000
424,369;  856,213;  367,857;    0,000
424,533;   85,847; -419,851;    0,000
424,696;  398,756;  -89,487;    0,000
424,860;  936,238;  426,199;    0,000
425,024; 1083,226;  579,348;    0,000
425,187;   15,821; -454,327;    0,000
425,351;  387,295;  -79,062;    0,000
425,515; 1101,791;  554,895;    0,000
425,678;  568,339;  100,825;    0,000
425,842;  618,636;  115,504;    0,000
426,006;  -52,150; -476,555;    0,000
426,169;  502,836;   71,304;    0,000
426,333; 1151,434;  684,453;    0,000
426,497;   42,327; -455,060;    0,000
426,660;  253,911; -186,141;    0,000
426,824;  654,654;  166,475;    0,000
426,988;  665,720;  213,770;    0,000
427,151;  249,105; -230,106;    0,000
427,315;  153,274; -336,774;    0,000
427,478;  715,955;  264,907;    0,000
427,642;  873,813;  450,296;    0,000
427,806;  139,305; -321,661;    0,000
427,969;  114,604; -306,654;    0,000
428,133;  586,482;  138,002;    0,000
428,296;  721,403;  245,501;    0,000
428,460;  414,517;  -23,255;    0,000
428,623;   17,187; -417,936;    0,000
428,787;  605,851;  151,335;    0,000
428,950; 1084,288;  644,212;    0,000
429,114;  264,373; -246,561;    0,000
429,278;  103,832; -359,327;    0,000
429,441;  526,084;   56,737;    0,000
429,605;  804,872;  318,691;    0,000
429,768;   37,433; -435,037;    0,000
429,932;  408,022; -111,638;    0,000
430,095;  432,221;  -33,727;    0,000
430,259;  895,504;  385,449;    0,000
430,422;  -55,237; -590,917;    0,000
430,585;  437,134;  -18,089;    0,000
430,749;  749,763;  279,083;    0,000
430,912;  678,680;  127,707;    0,000
431,076;  314,929; -234,564;    0,000
431,239;  103,320; -393,830;    0,000
431,403; 1033,616;  532,397;    0,000
431,566;  523,558;   64,247;    0,000
431,730;  152,455; -318,635;    0,000
431,893;  209,550; -260,368;    0,000
432,056;  777,931;  321,726;    0,000
432,220;  877,134;  415,266;    0,000
432,383;  210,136; -280,754;    0,000
432,547;  373,370;  -58,901;    0,000
432,710;  927,087;  390,122;    0,000
432,873;  754,846;  188,744;    0,000
433,037;  236,255; -391,635;    0,000
433,200;  294,108; -362,566;    0,000
433,363; 1110,860;  335,240;    0,000
433,527; 1421,513;  320,754;    0,000
433,690; 2124,869; -266,249;    0,000
433,853; 6096,520; -419,430;    0,000
434,017;17715,613;  376,412;    0,000
434,180;16406,837;  999,993;    0,000
434,343; 4657,203; -418,699;    0,000
434,507; 1212,198; -385,735;    0,000
434,670;  728,329; -101,770;    0,000
434,833;  825,307;  132,629;    0,000
434,997;  276,356; -321,487;    0,000
435,160;  466,513;  -75,846;    0,000
435,323; 1125,351;  534,037;    0,000
435,486; 1244,619;  650,577;    0,000
435,650;  430,665; -177,924;    0,000
435,813;   55,303; -435,602;    0,000
435,976;  748,879;  244,301;    0,000
436,139;  841,006;  375,242;    0,000
436,303;  238,184; -297,560;    0,000
436,466;   80,678; -437,744;    0,000
436,629;  982,984;  443,640;    0,000
436,792;  712,408;  138,176;    0,000
436,955;  270,275; -368,568;    0,000
437,119;  638,222;    2,762;    0,000
437,282; 1007,224;  408,658;    0,000
437,445;  951,303;  395,043;    0,000
437,608;  438,670; -167,204;    0,000
437,771;   79,798; -477,780;    0,000
437,935; 1554,944;  904,867;    0,000
438,098; 1289,548;  706,136;    0,000
438,261;  308,910; -247,631;    0,000
438,424;  495,858;   17,150;    0,000
438,587;  503,912;  -40,736;    0,000
438,750; 1087,397;  597,975;    0,000
438,913;   28,183; -554,405;    0,000
439,076;  293,436; -294,496;    0,000
439,240;  739,731;  191,326;    0,000
439,403;  793,866;  336,566;    0,000
439,566;  272,034; -179,747;    0,000
439,729;  531,617;  105,442;    0,000
439,892; 1116,389;  724,360;    0,000
440,055;  566,832;  138,113;    0,000
440,218;  131,077; -289,034;    0,000
440,381;  156,365; -211,582;    0,000
440,544;  526,564;  133,334;    0,000
440,707; 1612,592; 1224,855;    0,000
440,870;   32,892; -399,958;    0,000
441,033;  186,551; -257,723;    0,000
441,196;  556,753;  -72,228;    0,000
441,359;  940,533;  310,660;    0,000
441,522;  192,174; -411,471;    0,000
441,685;  513,579; -141,196;    0,000
441,848;  896,793;  242,390;    0,000
442,011;  680,204;  142,591;    0,000
442,174;  565,306;   46,784;    0,000
442,337;  -96,053; -521,954;    0,000
442,500;  791,754;  340,417;    0,000
442,663; 1059,163;  599,283;    0,000
442,826;  184,124; -279,600;    0,000
442,989;  283,691;  -90,047;    0,000
443,152;  614,933;  220,860;    0,000
443,315;  383,187;   23,464;    0,000
443,478;   91,322; -344,580;    0,000
443,641;  170,961; -196,967;    0,000
443,804;  681,065;  319,921;    0,000
443,967;  603,862;  246,380;    0,000
444,130;  -51,782; -453,068;    0,000
444,293;  -59,715; -376,373;    0,000
444,455;  744,687;  249,322;    0,000
444,618;  848,727;  388,140;    0,000
444,781;  259,891; -296,647;    0,000
444,944;  -23,113; -514,278;    0,000
445,107;  827,364;  312,928;    0,000
445,270;  528,844;  186,564;    0,000
445,433;  298,655; -166,435;    0,000
445,595;  242,522; -123,940;    0,000
445,758;  593,923;  182,510;    0,000
445,921; 1229,245;  744,054;    0,000
446,084;  266,625; -305,297;    0,000
446,247;  600,860;  124,685;    0,000
446,410;  622,567;  264,398;    0,000
446,572;  532,429;  225,933;    0,000
446,735;   39,665; -411,724;    0,000
446,898;  214,791; -136,905;    0,000
447,061;  697,269;  372,906;    0,000
447,224;  763,263;  401,825;    0,000
447,386;  166,180; -210,706;    0,000
447,549;  400,549;  -34,058;    0,000
447,712;  498,197;   80,175;    0,000
447,875;  892,299;  500,368;    0,000
448,037;  218,158; -160,753;    0,000
448,200;  232,237; -234,452;    0,000
448,363;  741,214;  220,302;    0,000
448,525; 1383,265;  844,321;    0,000
448,688;  212,267; -404,545;    0,000
448,851;  466,245; -151,191;    0,000
449,014;  526,053; -104,731;    0,000
449,176; 1020,289;  370,657;    0,000
449,339;  748,077;  104,966;    0,000
449,502;  687,743;   94,016;    0,000
449,664; 1306,739;  560,986;    0,000
449,827; 1123,340;  267,276;    0,000
449,990;  721,023;  -89,193;    0,000
450,152;  962,585;  198,730;    0,000
450,315;  947,194;  146,035;    0,000
450,477; 1223,931;  402,726;    0,000
450,640;  456,113; -342,446;    0,000
450,803;  769,906;  -60,616;    0,000
450,965; 1286,619;  462,777;    0,000
451,128; 1398,819;  684,222;    0,000
451,291;  448,223; -159,748;    0,000
451,453;  380,138;  -90,504;    0,000
451,616;  791,650;  383,245;    0,000
451,778;  671,449;  296,639;    0,000
451,941;  160,395; -175,720;    0,000
452,103;  570,549;  170,981;    0,000
452,266; 1260,209;  826,627;    0,000
452,429;  912,342;  462,726;    0,000
452,591;  107,311; -368,096;    0,000
452,754;  327,763;  -71,717;    0,000
452,916;  879,505;  437,939;    0,000
453,079;  815,761;  457,233;    0,000
453,241;  -32,080; -418,675;    0,000
453,404;  201,238; -183,362;    0,000
453,566;  781,614;  344,502;    0,000
453,729;  719,662;  258,580;    0,000
453,891;  -48,488; -499,091;    0,000
454,054;  363,270;   36,796;    0,000
454,216;  578,255;  174,965;    0,000
454,379;  617,873;  306,536;    0,000
454,541;  522,303;  180,598;    0,000
454,704;  -69,939; -369,509;    0,000
454,866;  594,635;  223,659;    0,000
455,028;  850,404;  437,946;    0,000
455,191;  -33,797; -536,460;    0,000
455,353;  237,048; -174,006;    0,000
455,516; 1112,566;  690,224;    0,000
455,678;  609,046;  181,099;    0,000
455,840;  245,827; -217,518;    0,000
456,003;  400,993;   10,545;    0,000
456,165;  866,130;  436,281;    0,000
456,328; 1045,271;  752,646;    0,000
456,490;  190,749; -238,303;    0,000
456,652;   66,565; -348,182;    0,000
456,815;  775,349;  318,297;    0,000
456,977;  240,354; -225,383;    0,000
457,139;  908,866;  452,811;    0,000
457,302;  429,535; -137,999;    0,000
457,464;  683,731;  196,526;    0,000
457,626; 1369,753;  894,172;    0,000
457,789;  839,247;  329,749;    0,000
457,951;  110,991; -430,705;    0,000
458,113; 1462,216;  780,197;    0,000
458,276;  716,799;  181,471;    0,000
458,438;   89,506; -271,816;    0,000
458,600;   58,318; -303,726;    0,000
458,763;  546,314;  225,399;    0,000
458,925;  536,722;  221,860;    0,000
459,087;    7,278; -308,144;    0,000
459,249; -104,927; -383,264;    0,000
459,412;  581,638;  277,438;    0,000
459,574;  756,541;  437,921;    0,000
459,736;  -67,487; -423,646;    0,000
459,898;  217,642; -103,531;    0,000
460,061;  567,217;  288,087;    0,000
460,223;  510,153;  236,527;    0,000
460,385;  -66,090; -371,386;    0,000
460,547;  -38,646; -379,938;    0,000
460,709; 1013,552;  704,282;    0,000
460,872;  437,022;  153,847;    0,000
461,034;   11,327; -318,660;    0,000
461,196;  109,511; -174,941;    0,000
461,358;  128,064; -187,930;    0,000
461,520; 1084,134;  744,466;    0,000
461,682;  654,738;  193,380;    0,000
461,845;  202,619; -192,178;    0,000
462,007;  404,117;    6,784;    0,000
462,169;  433,483;   75,292;    0,000
462,331;   49,114; -325,956;    0,000
462,493;  190,289; -241,143;    0,000
462,655;  641,673;  194,581;    0,000
462,817; 1048,103;  492,198;    0,000
462,979;  276,779; -281,796;    0,000
463,141;  571,484; -213,618;    0,000
463,303; 1302,146;  342,157;    0,000
463,466;  986,440;   85,573;    0,000
463,628;  516,241;  -38,061;    0,000
463,790;   39,980; -359,351;    0,000
463,952;  679,506;  342,384;    0,000
464,114;  426,088;  130,612;    0,000
464,276;  -21,786; -384,898;    0,000
464,438;  531,614;  197,702;    0,000
464,600;  463,510;  131,969;    0,000
464,762;  479,827;  158,798;    0,000
464,924;   58,426; -250,607;    0,000
465,086;  660,105;  312,694;    0,000
465,248;  662,098;  254,723;    0,000
465,410;  907,877;  469,811;    0,000
465,572;  156,258; -290,095;    0,000
465,734;    3,489; -371,743;    0,000
465,896;  490,656;  132,010;    0,000
466,058;  833,783;  357,634;    0,000
466,220;  210,546; -223,798;    0,000
466,382;  190,834; -173,347;    0,000
466,544;  585,859;  176,795;    0,000
466,706;  461,198;  161,065;    0,000
466,868;  240,511; -146,941;    0,000
467,029;  228,543; -234,384;    0,000
467,191;  722,485;  222,872;    0,000
467,353;  746,498;  349,523;    0,000
467,515;   -0,516; -368,863;    0,000
467,677;  349,478;   -3,144;    0,000
467,839;  459,932;   98,815;    0,000
468,001;  928,049;  514,684;    0,000
468,163;  360,796;  -91,314;    0,000
468,325;  444,049;  -48,161;    0,000
468,486;  613,415;   86,592;    0,000
468,648;  484,187;   80,064;    0,000
468,810;  425,753;  -93,228;    0,000
468,972;  -99,230; -440,101;    0,000
469,134;  661,577;  296,824;    0,000
469,296;  519,192;  143,940;    0,000
469,457;  -84,974; -405,207;    0,000
469,619;  124,393; -189,255;    0,000
469,781;  527,486;  168,033;    0,000
469,943;  -18,269; -389,429;    0,000
470,105;  -83,880; -451,430;    0,000
470,266;   15,738; -344,104;    0,000
470,428;  622,453;  200,030;    0,000
470,590;  728,842;  347,313;    0,000
470,752;   97,056; -287,945;    0,000
470,913;   99,818; -308,268;    0,000
471,075;  549,736;  164,646;    0,000
471,237;  957,157;  567,157;    0,000
471,399;  121,847; -288,651;    0,000
471,560;  -67,031; -473,752;    0,000
471,722;  760,506;  276,184;    0,000
471,884;  720,842;  276,669;    0,000
472,045;  100,664; -372,930;    0,000
472,207;  -38,089; -500,741;    0,000
472,369;  527,838;   54,438;    0,000
472,530;  635,449;  207,084;    0,000
472,692;   46,411; -368,038;    0,000
472,854;  726,056;  340,015;    0,000
473,015;  660,642;  263,869;    0,000
473,177;  693,548;  247,536;    0,000
473,339;   59,927; -408,260;    0,000
473,500;  199,351; -158,523;    0,000
473,662;  637,998;  190,420;    0,000
473,824; 1056,901;  665,264;    0,000
473,985; -116,228; -516,567;    0,000
474,147;   17,379; -328,996;    0,000
474,308;  616,700;  167,858;    0,000
474,470; 1028,073;  616,336;    0,000
474,632;  217,900; -201,497;    0,000
474,793;  352,230;  -47,177;    0,000
474,955;  908,160;  361,743;    0,000
475,116;  474,642;   69,669;    0,000
475,278;  410,616;  -57,563;    0,000
475,439;  148,991; -203,150;    0,000
475,601;  436,503;   34,198;    0,000
475,763;  716,232;  304,758;    0,000
475,924;  124,130; -344,919;    0,000
476,086; -129,891; -509,037;    0,000
476,247;  796,687;  317,962;    0,000
476,409;  757,506;  266,584;    0,000
476,570;  575,404;   89,346;    0,000
476,732;  375,400;  -54,284;    0,000
476,893;  837,259;  406,995;    0,000
477,055;  676,962;  185,678;    0,000
477,216;  647,579;  196,804;    0,000
477,377;  356,610; -125,444;    0,000
477,539;  512,881;  130,197;    0,000
477,700;  693,212;  187,451;    0,000
477,862;  114,401; -414,994;    0,000
478,023;  205,529; -367,725;    0,000
478,185;  832,244;  256,364;    0,000
478,346;  601,615;   85,792;    0,000
478,508;  504,450;  -82,910;    0,000
478,669;  167,656; -379,945;    0,000
478,830;  643,136;   94,246;    0,000
478,992; 1067,115;  526,450;    0,000
479,153;  728,503;  141,643;    0,000
479,314;  246,157; -342,198;    0,000
479,476;  781,529;  157,075;    0,000
479,637; 1041,890;  463,708;    0,000
479,799;  454,128; -259,415;    0,000
479,960;  317,771; -347,056;    0,000
480,121;  570,889; -150,582;    0,000
480,283;  872,787;  216,420;    0,000
480,444;  523,994; -150,165;    0,000
480,605;  895,874;   93,026;    0,000
480,767;  905,072;  110,691;    0,000
480,928; 1116,284;  248,982;    0,000
481,089;  666,436; -170,496;    0,000
481,250;  559,907; -315,771;    0,000
481,412; 1509,655;  605,565;    0,000
481,573; 1530,658;  584,750;    0,000
481,734;  599,281; -400,003;    0,000
481,896;  624,092; -444,358;    0,000
482,057; 1096,825;   17,742;    0,000
482,218; 1510,187;  379,220;    0,000
482,379; 1229,948;  -34,748;    0,000
482,541; 1149,876; -153,478;    0,000
482,702; 1776,885;  461,027;    0,000
482,863; 1965,237;  527,593;    0,000
483,024; 1130,456; -289,345;    0,000
483,185; 1733,984;  235,479;    0,000
483,347; 1784,843;  302,874;    0,000
483,508; 1351,500;   77,703;    0,000
483,669;  713,510; -240,386;    0,000
483,830;  534,858; -160,650;    0,000
483,991;  894,389;  275,760;    0,000
484,152; 1107,923;  447,310;    0,000
484,314;  380,906; -377,016;    0,000
484,475;  527,873; -162,064;    0,000
484,636; 1330,039;  523,044;    0,000
484,797; 1352,323;  364,749;    0,000
484,958;  751,161; -359,167;    0,000
485,119; 1218,503; -101,202;    0,000
485,280; 1835,149;   44,697;    0,000
485,441; 3309,059;  377,595;    0,000
485,603; 5959,366; -360,892;    0,000
485,764;18227,021;  -15,488;    0,000
485,925;58120,237;  214,793;    0,000
486,086;62529,576;  687,419;    0,000
486,247;62546,711; -306,741;    0,000
486,408;62529,215; -126,208;    0,000
486,569;59427,926;  260,290;    0,000
486,730;24959,139;  339,186;    0,000
486,891; 2735,956; -335,687;    0,000
487,052; 2619,114;   -2,556;    0,000
487,213; 2198,639;  418,244;    0,000
487,374; 2028,502;  186,593;    0,000
487,535;  910,871; -458,759;    0,000
487,696; 1708,813;  361,496;    0,000
487,857; 1224,608;  200,621;    0,000
488,018; 1639,764;  625,328;    0,000
488,179;  584,924; -246,400;    0,000
488,340;  569,872; -395,869;    0,000
488,501;  715,716;  -88,705;    0,000
488,662;  990,366;  169,308;    0,000
488,823;  685,412;  -66,394;    0,000
488,984;  484,827; -297,918;    0,000
489,145;  765,073;   75,581;    0,000
489,306;  703,393;   50,790;    0,000
489,467;  412,163; -213,233;    0,000
489,628;  243,720; -449,675;    0,000
489,789;  500,414; -136,698;    0,000
489,949; 1201,853;  622,669;    0,000
490,110;  393,166; -192,492;    0,000
490,271;  249,100; -295,497;    0,000
490,432; 1002,824;  411,458;    0,000
490,593; 1064,249;  475,684;    0,000
490,754;  306,261; -358,070;    0,000
490,915;  507,912; -116,536;    0,000
491,076;  960,623;  378,807;    0,000
491,236;  742,938;  207,741;    0,000
491,397;  157,934; -321,689;    0,000
491,558;  324,653; -146,931;    0,000
491,719; 1039,451;  541,980;    0,000
491,880; 1034,679;  449,946;    0,000
492,041;  153,793; -478,210;    0,000
492,201;  582,732;   38,415;    0,000
492,362;  755,374;  198,529;    0,000
492,523; 1127,049;  494,284;    0,000
492,684;  373,560; -362,257;    0,000
492,844;  666,031; -313,932;    0,000
493,005; 1156,580;  284,494;    0,000
493,166; 1418,614;  600,702;    0,000
493,327;  541,984; -372,321;    0,000
493,487;  717,610; -230,644;    0,000
493,648; 1158,224;  447,297;    0,000
493,809;  885,212;  249,851;    0,000
493,970;  444,560; -108,057;    0,000
494,130;  346,071; -142,159;    0,000
494,291;  932,552;  454,967;    0,000
494,452; 1265,272;  780,691;    0,000
494,612;  176,698; -258,038;    0,000
494,773;  163,238; -221,517;    0,000
494,934; 1092,709;  661,563;    0,000
495,094;  980,580;  561,494;    0,000
495,255;  174,251; -276,865;    0,000
495,416;  912,107;  499,429;    0,000
495,576;  755,071;  271,041;    0,000
495,737;  658,114;  124,399;    0,000
495,898;  433,854;  -21,125;    0,000
496,058;  268,744; -173,094;    0,000
496,219;  628,169;  239,693;    0,000
496,380;  809,532;  461,015;    0,000
496,540;   69,409; -360,734;    0,000
496,701;  193,837; -191,452;    0,000
496,861;  964,250;  494,090;    0,000
497,022;  803,666;  325,611;    0,000
497,183;  156,671; -338,959;    0,000
497,343;  159,053; -380,131;    0,000
497,504;  929,251;  402,935;    0,000
497,664;  602,397;  209,375;    0,000
497,825;  791,456;  295,210;    0,000
497,985;  107,526; -347,110;    0,000
498,146;  821,860;  458,401;    0,000
498,306;  784,869;  417,390;    0,000
498,467;   70,205; -251,164;    0,000
498,627;  386,870;   53,196;    0,000
498,788;  519,095;  234,583;    0,000
498,948;  660,496;  320,028;    0,000
499,109;  148,731; -180,629;    0,000
499,269;  177,481; -108,403;    0,000
499,430;  708,666;  435,011;    0,000
499,590;  894,920;  498,970;    0,000
499,751;  111,700; -284,097;    0,000
499,911;  193,478; -181,544;    0,000
500,072;  638,420;  300,267;    0,000
500,232;  802,504;  425,888;    0,000
500,392;  120,496; -261,327;    0,000
500,553;   93,310; -222,386;    0,000
500,713;  754,768;  356,203;    0,000
500,874;  738,732;  346,415;    0,000
501,034;  253,966; -110,692;    0,000
501,194;   86,735; -391,999;    0,000
501,355; 1132,185;  591,930;    0,000
501,515;  652,344;   72,261;    0,000
501,676;  352,623; -124,593;    0,000
501,836;   31,749; -381,303;    0,000
501,996; 1250,827;  963,882;    0,000
502,157;  488,901;  228,908;    0,000
502,317; -149,124; -428,523;    0,000
502,477;   64,681; -196,758;    0,000
502,638;  707,681;  447,197;    0,000
502,798;  267,482;  -48,514;    0,000
502,958;  242,557;  -68,043;    0,000
503,119;  137,614; -185,814;    0,000
503,279;  -82,478; -342,740;    0,000
503,439;  629,675;  362,671;    0,000
503,599; -156,974; -356,252;    0,000
503,760;  -76,189; -318,038;    0,000
503,920;  623,064;  290,915;    0,000
504,080;  720,089;  369,057;    0,000
504,240;   70,542; -222,629;    0,000
504,401; -126,573; -363,718;    0,000
504,561;  801,761;  476,633;    0,000
504,721;  739,491;  453,353;    0,000
504,881; -122,232; -414,997;    0,000
505,042; -211,617; -444,166;    0,000
505,202;  803,422;  431,917;    0,000
505,362;  609,649;  296,484;    0,000
505,522;  170,340; -208,924;    0,000
505,682;  202,575; -142,426;    0,000
505,843;  632,045;  352,254;    0,000
506,003;  818,230;  550,178;    0,000
506,163;   88,030; -204,822;    0,000
506,323;  224,578; -112,241;    0,000
506,483;  883,900;  537,903;    0,000
506,643;  955,651;  613,580;    0,000
506,803;  326,920;  -37,675;    0,000
506,964;  -48,979; -382,043;    0,000
507,124;  943,422;  563,917;    0,000
507,284;  888,231;  556,868;    0,000
507,444;  238,030; -118,822;    0,000
507,604;   32,172; -347,567;    0,000
507,764;  704,893;  369,287;    0,000
507,924;  826,421;  449,512;    0,000
508,084;  443,519;   -3,520;    0,000
508,244;  159,783; -233,566;    0,000
508,404;  605,256;  199,615;    0,000
508,564;  647,559;  301,292;    0,000
508,724;   80,166; -234,292;    0,000
508,884;  126,122; -200,380;    0,000
509,045;  758,082;  448,286;    0,000
509,205;  708,294;  506,932;    0,000
509,365; -186,033; -422,487;    0,000
509,525; -143,399; -389,594;    0,000
509,685;  442,067;  153,455;    0,000
509,845;  816,931;  580,726;    0,000
510,005; -204,134; -459,034;    0,000
510,165;  570,499;  343,168;    0,000
510,324;  907,893;  601,287;    0,000
510,484;  565,583;  362,789;    0,000
510,644;    8,148; -283,548;    0,000
510,804;  148,361;  -35,967;    0,000
510,964;  254,256;   18,010;    0,000
511,124;  491,503;  237,643;    0,000
511,284;  292,872;   -1,909;    0,000
511,444;  -15,736; -232,485;    0,000
511,604;  484,120;  270,370;    0,000
511,764; 1130,074;  866,026;    0,000
511,924; -159,303; -425,682;    0,000
512,084;  -69,073; -303,860;    0,000
512,244;  764,834;  475,453;    0,000
512,403;  648,195;  402,525;    0,000
512,563;  -98,124; -416,078;    0,000
512,723;  -89,969; -376,732;    0,000
512,883;  934,821;  680,112;    0,000
513,043; 1105,178;  846,959;    0,000
513,203; -100,727; -420,819;    0,000
513,362;  282,399;  -15,329;    0,000
513,522; 1256,675;  850,232;    0,000
513,682;  811,711;  479,459;    0,000
513,842;  310,647;   45,704;    0,000
514,002;  119,090; -254,853;    0,000
514,161;  583,616;  183,637;    0,000
514,321; 1047,484;  679,182;    0,000
514,481;  -12,205; -390,120;    0,000
514,641;  264,657; -150,740;    0,000
514,801;  728,992;  398,300;    0,000
514,960; 1236,945;  876,396;    0,000
515,120;  304,509;  -89,876;    0,000
515,280;   49,407; -350,269;    0,000
515,440; 1129,628;  723,927;    0,000
515,599;  874,281;  385,042;    0,000
515,759;   10,185; -454,870;    0,000
515,919;  470,543;  -11,384;    0,000
516,078;  911,793;  428,790;    0,000
516,238; 1174,395;  752,325;    0,000
516,398;  341,548; -249,148;    0,000
516,557;  645,460;  118,640;    0,000
516,717;  839,011;  294,562;    0,000
516,877; 1038,467;  408,455;    0,000
517,036;  726,400;   56,316;    0,000
517,196;  294,753; -375,828;    0,000
517,356; 2113,151; 1450,877;    0,000
517,515; 1018,757;  289,002;    0,000
517,675;  456,422; -277,638;    0,000
517,835;  503,699; -313,787;    0,000
517,994; 1244,008;  367,776;    0,000
518,154; 1395,548;  518,852;    0,000
518,313;  952,578;   63,314;    0,000
518,473;  727,823; -182,393;    0,000
518,633; 1702,207;  758,486;    0,000
518,792; 1578,535;  617,001;    0,000
518,952;  436,896; -654,527;    0,000
519,111; 1097,052;  -32,215;    0,000
519,271; 1656,379;  498,004;    0,000
519,430; 2079,350;  836,032;    0,000
519,590; 1142,495; -129,262;    0,000
519,749;  854,939; -248,169;    0,000
519,909;  997,413;  344,012;    0,000
520,068; 1014,047;  651,379;    0,000
520,228;  -48,350; -241,421;    0,000
520,387;  -39,948; -180,620;    0,000
520,547;  933,055;  724,380;    0,000
520,706;  583,058;  467,180;    0,000
520,866;  -29,140; -109,020;    0,000
521,025;  427,463;  334,980;    0,000
521,185;  603,066;  504,381;    0,000
521,344;  802,468;  644,981;    0,000
521,504; -249,929; -364,219;    0,000
521,663;  -26,327; -173,019;    0,000
521,823;  423,076;  301,381;    0,000
521,982;  718,479;  585,382;    0,000
522,141; -208,519; -356,618;    0,000
522,301;  304,284;  206,382;    0,000
522,460;  283,486;  119,582;    0,000
522,620;  460,089;  367,382;    0,000
522,779;  -11,308; -213,217;    0,000
522,938;  386,494;  150,583;    0,000
523,098;  782,697;  607,383;    0,000
523,257;  548,900;  468,183;    0,000
523,416;   39,102;  -97,217;    0,000
523,576;   -0,695;  -46,616;    0,000
523,735;  633,107;  481,384;    0,000
523,895;  773,510;  647,184;    0,000
524,054; -129,287; -269,616;    0,000
524,213;  -99,885; -230,616;    0,000
524,372;  662,118;  551,784;    0,000
524,532; 1085,120;  913,385;    0,000
524,691; -121,077; -290,615;    0,000
524,850; -136,074; -278,015;    0,000
525,010;  615,128;  476,585;    0,000
525,169;  903,331;  771,785;    0,000
525,328;  -43,266; -192,614;    0,000
525,487;   38,736; -134,014;    0,000
525,647;  686,339;  487,786;    0,000
525,806;  661,141;  451,386;    0,000
525,965;  111,544; -141,614;    0,000
526,124;  148,147; -114,013;    0,000
526,284;  919,349;  710,187;    0,000
526,443;  884,152;  570,587;    0,000
526,602; -145,646; -404,213;    0,000
526,761;   -0,243; -209,413;    0,000
526,920;  824,760;  609,588;    0,000
527,080; 1004,162;  812,388;    0,000
527,239;  -27,235; -292,212;    0,000
527,398; -109,632; -268,012;    0,000
527,557;  107,170;  -55,212;    0,000
527,716;  403,373;  329,989;    0,000
527,875;  -35,225; -192,011;    0,000
528,034;  200,778;   96,989;    0,000
528,194;  744,581;  588,989;    0,000
528,353;  732,983;  610,989;    0,000
528,512; -304,214; -434,610;    0,000
528,671;  320,788;  181,590;    0,000
528,830;  446,591;  373,990;    0,000
528,989;  767,594;  634,190;    0,000
529,148; -168,804; -272,210;    0,000
529,307;  -80,801; -203,209;    0,000
529,466;  672,602;  530,991;    0,000
529,625;  667,404;  568,991;    0,000
529,784;  -16,393; -135,009;    0,000
529,944;  202,209;  146,991;    0,000
530,103;  754,812;  576,792;    0,000
530,262;  364,415;  171,192;    0,000
530,421; -124,383; -326,008;    0,000
530,580;   49,820;  -16,208;    0,000
530,739;  190,422;  140,592;    0,000
530,898;  522,825;  421,992;    0,000
531,057;  -32,772; -201,407;    0,000
531,216;    3,830;  -55,407;    0,000
531,375;  344,633;  273,393;    0,000
531,534;  560,836;  448,193;    0,000
531,693;  -79,762; -207,207;    0,000
531,851;   24,241; -158,606;    0,000
532,010; 1095,243;  981,394;    0,000
532,169;  664,246;  534,994;    0,000
532,328;  -36,151; -144,006;    0,000
532,487;  243,051;  215,594;    0,000
532,646; 1085,054;  995,595;    0,000
532,805;  438,256;  317,195;    0,000
532,964;  312,059;  104,595;    0,000
533,123;  264,262;  123,595;    0,000
533,282;  841,064;  705,995;    0,000
533,441;  566,467;  452,796;    0,000
533,599;  258,070;   91,596;    0,000
533,758; -237,928; -379,004;    0,000
533,917;  744,075;  653,596;    0,000
534,076;  673,077;  569,796;    0,000
534,235;  167,080;   65,597;    0,000
534,394;  -27,117; -140,403;    0,000
534,553;  744,085;  653,797;    0,000
534,711;  671,888;  601,197;    0,000
534,870; -202,710; -316,003;    0,000
535,029;  115,693;   49,598;    0,000
535,188;  362,696;  280,798;    0,000
535,347;  252,898;  184,798;    0,000
535,505;  -55,299; -214,202;    0,000
535,664;   65,704;  -15,802;    0,000
535,823;  546,306;  403,599;    0,000
535,982;  653,909;  573,799;    0,000
536,140;   34,311;  -93,201;    0,000
536,299;  230,114;  142,799;    0,000
536,458;  504,917;  399,199;    0,000
536,617;  532,919;  493,600;    0,000
536,775;  -62,878; -158,600;    0,000
536,934; -173,076; -230,600;    0,000
537,093;  836,927;  680,200;    0,000
537,251;  797,130;  664,200;    0,000
537,410; -309,268; -371,399;    0,000
537,569;  170,335;   56,601;    0,000
537,727;  598,538;  385,201;    0,000
537,886;  386,940;  333,201;    0,000
538,045;  -47,457; -101,799;    0,000
538,203; -133,055; -183,199;    0,000
538,362;  631,948;  525,802;    0,000
538,521; 1138,151;  996,202;    0,000
538,679;  113,153;  -73,398;    0,000
538,838;   -3,444; -168,398;    0,000
538,996; 1049,758;  894,402;    0,000
539,155;  529,561;  439,803;    0,000
539,314;   -3,836; -144,597;    0,000
539,472; -122,634; -170,797;    0,000
539,631;  316,569;  265,603;    0,000
539,789;  727,972;  656,403;    0,000
539,948;  -37,826; -159,596;    0,000
540,107; -110,823; -200,796;    0,000
540,265;  474,179;  345,604;    0,000
540,424;  738,182;  694,204;    0,000
540,582;  125,985;   30,404;    0,000
540,741;   30,987;  -52,795;    0,000
540,899;  422,990;  357,805;    0,000
541,058;  428,392;  427,205;    0,000
541,216; -194,605; -203,195;    0,000
541,375;  -29,602;  -66,195;    0,000
541,533;  134,200;  111,406;    0,000
541,692;  994,603;  906,006;    0,000
541,850;  342,606;  161,606;    0,000
542,009;  331,808;  170,806;    0,000
542,167;  860,611;  689,206;    0,000
542,326;  472,413;  387,407;    0,000
542,484; -127,184; -256,393;    0,000
542,642;  224,219;   69,207;    0,000
542,801;  737,621;  646,007;    0,000
542,959;  874,224;  818,807;    0,000
543,118; -168,174; -270,792;    0,000
543,276; -281,571; -314,592;    0,000
543,434;  689,632;  553,008;    0,000
543,593;  865,634;  740,008;    0,000
543,751;   41,437;  -74,592;    0,000
543,910; -226,560; -266,591;    0,000
544,068;  720,442;  659,409;    0,000
544,226;  564,645;  571,609;    0,000
544,385;  170,847;  190,209;    0,000
544,543; -172,950; -127,191;    0,000
544,701;  590,453;  551,810;    0,000
544,860;  654,455;  642,410;    0,000
545,018; -292,542; -325,190;    0,000
545,176; -210,940; -267,990;    0,000
545,335;  564,263;  539,210;    0,000
545,493;  393,066;  417,010;    0,000
545,651;  211,268;  182,211;    0,000
545,809;   70,471;   91,011;    0,000
545,968;  855,874;  804,611;    0,000
546,126;  995,076;  962,011;    0,000
546,284; -130,721; -212,789;    0,000
546,442;  -25,919;  -35,188;    0,000
546,601;  672,084;  648,212;    0,000
546,759;  823,487;  830,612;    0,000
546,917; -141,711; -187,588;    0,000
547,075;  192,892;  187,212;    0,000
547,234;  339,494;  307,413;    0,000
547,392;  609,297;  623,213;    0,000
547,550; -357,500; -331,987;    0,000
547,708; -145,698; -121,787;    0,000
547,866;  746,305;  712,613;    0,000
548,025;  981,308;  955,014;    0,000
548,183;  228,710;  200,814;    0,000
548,341;   91,513;   85,014;    0,000
548,499;  560,915;  617,814;    0,000
548,657;  453,718;  494,614;    0,000
548,815;   29,921;   27,815;    0,000
548,973; -132,077; -140,985;    0,000
549,131;  175,126;  194,015;    0,000
549,290;  305,328;  335,815;    0,000
549,448; -481,069; -472,585;    0,000
549,606; -356,666; -324,984;    0,000
549,764;  799,736;  722,016;    0,000
549,922;  728,939;  693,416;    0,000
550,080;   89,942;    3,616;    0,000
550,238; -155,056; -154,984;    0,000
550,396;  613,547;  545,017;    0,000
550,554;  417,549;  322,617;    0,000
550,712; -329,848; -337,383;    0,000
550,870;  127,355;  123,617;    0,000
551,028;  539,357;  468,617;    0,000
551,186;  530,760;  538,418;    0,000
551,344; -195,638; -144,782;    0,000
551,502; -309,235; -287,782;    0,000
551,660;  727,768;  696,018;    0,000
551,818;  540,370;  540,418;    0,000
551,976;  232,173;  219,419;    0,000
552,134;  216,576;  191,419;    0,000
552,292;  559,778;  499,419;    0,000
552,450;  529,381;  522,819;    0,000
552,608; -246,017; -201,181;    0,000
552,766;   95,786;   87,619;    0,000
552,924;  394,389;  353,820;    0,000
553,082;  128,591;   90,620;    0,000
553,240; -271,006; -253,980;    0,000
553,398;  127,596;   89,220;    0,000
553,556;  813,199;  622,820;    0,000
553,713;  529,602;  382,221;    0,000
553,871;    2,404;  -93,779;    0,000
554,029;  198,007;  193,021;    0,000
554,187;  640,210;  520,221;    0,000
554,345;  386,212;  307,821;    0,000
554,503;  228,415;   82,622;    0,000
554,661;   73,017;   16,222;    0,000
554,818;  564,820;  466,222;    0,000
554,976;  859,423;  804,822;    0,000
555,134; -110,375; -199,378;    0,000
555,292;  181,228;   90,023;    0,000
555,450;  898,030;  773,423;    0,000
555,608;  416,033;  339,423;    0,000
555,765; -379,564; -530,777;    0,000
555,923;   87,238;  -57,377;    0,000
556,081;  790,841;  696,824;    0,000
556,239;  796,444;  660,224;    0,000
556,396;  -12,354; -158,776;    0,000
556,554;  705,049;  632,624;    0,000
556,712;  642,651;  544,624;    0,000
556,870;  986,854;  826,625;    0,000
557,027;  230,057;   76,025;    0,000
557,185;   -2,941; -148,575;    0,000
557,343;  989,462;  821,625;    0,000
557,500;  689,664;  559,825;    0,000
557,658;  354,867;  212,626;    0,000
557,816;  -35,330; -185,974;    0,000
557,974;  995,872;  753,426;    0,000
558,131;  888,875;  718,826;    0,000
558,289;  -65,122; -278,174;    0,000
558,447;  197,480;   34,227;    0,000
558,604;  907,683;  713,827;    0,000
558,762;  707,685;  490,627;    0,000
558,919;   -9,512; -275,573;    0,000
559,077;  338,891;   72,427;    0,000
559,235;  825,093;  527,028;    0,000
559,392;  589,696;  290,428;    0,000
559,550;  447,098;   82,828;    0,000
559,708;  154,901; -252,572;    0,000
559,865; 1215,504;  733,628;    0,000
560,023; 1247,506;  779,028;    0,000
560,180;  203,309; -249,371;    0,000
560,338;  691,312;  243,029;    0,000
560,495; 1375,314;  844,029;    0,000
560,653; 1398,917;  972,029;    0,000
560,810;   91,319; -386,771;    0,000
560,968;  195,722; -132,170;    0,000
561,125;  586,925;  414,230;    0,000
561,283;  757,327;  667,230;    0,000
561,441;   38,530;   96,630;    0,000
561,598; -261,068; -244,970;    0,000
561,756;  523,335;  572,031;    0,000
561,913;  721,338;  784,431;    0,000
562,070; -320,460; -296,769;    0,000
562,228;   46,543;   72,431;    0,000
562,385;  742,946;  782,831;    0,000
562,543; 1050,148; 1015,432;    0,000
562,700; -145,449; -224,968;    0,000
562,858;   47,753;   -4,368;    0,000
563,015;  502,556;  502,232;    0,000
563,173;  596,359;  604,832;    0,000
563,330;   11,761;  -88,567;    0,000
563,487; -315,836; -366,967;    0,000
563,645;  893,566;  845,433;    0,000
563,802;  816,369;  888,233;    0,000
563,960; -289,428; -228,767;    0,000
564,117;  -34,226;  -53,366;    0,000
564,274;  824,377;  836,434;    0,000
564,432;  374,980;  415,434;    0,000
564,589;  -52,418;  -28,366;    0,000
564,746; -116,215; -111,566;    0,000
564,904;  326,787;  339,035;    0,000
565,061;  509,790;  596,035;    0,000
565,218; -284,407; -308,565;    0,000
565,376;    4,595;  -21,765;    0,000
565,533; 1532,198; 1471,235;    0,000
565,690;  747,000;  663,636;    0,000
565,848;  189,603;   31,036;    0,000
566,005;  208,006;   74,236;    0,000
566,162;  844,808;  716,836;    0,000
566,319;  566,211;  565,636;    0,000
566,477;   60,014;   71,437;    0,000
566,634;  -13,984;  -56,163;    0,000
566,791;  724,019;  682,037;    0,000
566,948;  806,621;  750,037;    0,000
567,106;  489,624;  372,437;    0,000
567,263; -126,373; -220,363;    0,000
567,420;  854,429;  691,638;    0,000
567,577; 1090,432; 1009,638;    0,000
567,734;   42,834;   99,638;    0,000
567,892; -198,963; -161,762;    0,000
568,049;  765,440;  621,638;    0,000
568,206; 1103,642;  722,839;    0,000
568,363;  381,445; -119,361;    0,000
568,520;  -52,752; -259,561;    0,000
568,677;  896,650;  685,239;    0,000
568,834; 1086,853;  727,639;    0,000
568,992;  185,655; -228,960;    0,000
569,149;   96,458; -136,560;    0,000
569,306;  745,461;  598,640;    0,000
569,463; 1055,263;  923,040;    0,000
569,620;  -40,134; -293,760;    0,000
569,777;  350,868;  103,441;    0,000
569,934;  599,671;  257,841;    0,000
570,091; 1186,674;  877,041;    0,000
570,248;  837,876;  343,841;    0,000
570,405;  441,679;   18,241;    0,000
570,562; 1003,282;  853,242;    0,000
570,719;  413,084;  399,642;    0,000
570,877;  -82,513; -129,358;    0,000
571,034;  159,489;  112,042;    0,000
571,191; 1093,692;  974,242;    0,000
571,348;  731,295;  609,043;    0,000
571,505;  -67,703; -159,757;    0,000
571,662;  -80,100;  -94,357;    0,000
571,819;  404,502;  501,043;    0,000
571,976;  305,305;  396,043;    0,000
572,132; -151,692;  -55,356;    0,000
572,289;  -24,690;  -44,956;    0,000
572,446; 1294,113; 1135,644;    0,000
572,603;  958,516;  798,244;    0,000
572,760;  999,118;  554,044;    0,000
572,917;  409,521;  -96,755;    0,000
573,074; 1195,123;  607,445;    0,000
573,231; 1420,526;  926,445;    0,000
573,388;  295,329; -127,355;    0,000
573,545;  593,131;   77,645;    0,000
573,702;  769,534;  265,445;    0,000
573,859; 1101,136;  845,246;    0,000
574,015;  156,739; -157,954;    0,000
574,172;  484,742;  205,846;    0,000
574,329;  659,144;  576,646;    0,000
574,486;  916,947;  962,446;    0,000
574,643; -285,650; -144,753;    0,000
574,800;  135,752;  267,247;    0,000
574,957;  759,755;  827,247;    0,000
575,113;  508,957;  556,247;    0,000
575,270; -227,840; -287,753;    0,000
575,427;   40,163; -115,352;    0,000
575,584; 1043,365;  419,648;    0,000
575,741; 1161,568;  502,848;    0,000
575,897;  823,370;  121,848;    0,000
576,054;  448,173;  -57,952;    0,000
576,211;  742,776;  483,649;    0,000
576,368;  955,378;  733,249;    0,000
576,524;  236,381; -224,951;    0,000
576,681;  308,984;  -66,351;    0,000
576,838;  860,786;  694,049;    0,000
576,995;  654,389;  613,850;    0,000
577,151;  -34,009; -192,350;    0,000
577,308;  172,194; -156,150;    0,000
577,465; 1092,997;  650,650;    0,000
577,621;  759,999;  440,050;    0,000
577,778;  479,402;   18,851;    0,000
577,935;  534,204;  154,451;    0,000
578,091;  781,807;  550,851;    0,000
578,248; 1111,410;  846,651;    0,000
578,405;  436,612;  -46,549;    0,000
578,561;  755,015;  145,052;    0,000
578,718; 1089,418;  650,452;    0,000
578,875;  991,620;  659,852;    0,000
579,031;  361,423; -135,948;    0,000
579,188;  445,825; -105,748;    0,000
579,344; 1129,828;  573,453;    0,000
579,501; 1277,231;  716,853;    0,000
579,658;   93,833; -217,347;    0,000
579,814;  256,436;  -15,347;    0,000
579,971;  891,238;  594,853;    0,000
580,127;  645,841;  313,254;    0,000
580,284;  729,244;  360,654;    0,000
580,440;  509,246;  -54,746;    0,000
580,597; 1416,449;  835,854;    0,000
580,754; 1278,252;  872,254;    0,000
580,910;  759,654;  271,054;    0,000
581,067; 1125,257; -144,345;    0,000
581,223; 2749,859;  752,455;    0,000
581,380; 2328,862;  582,655;    0,000
581,536; 1434,465;  157,455;    0,000
581,693; 1154,867;  253,855;    0,000
581,849; 1521,470;  617,256;    0,000
582,005; 1073,272;  416,256;    0,000
582,162;  576,275;   56,056;    0,000
582,318;  645,078;  187,256;    0,000
582,475;  540,680;  305,256;    0,000
582,631;  692,083;  703,857;    0,000
582,788;  -61,114;  -55,343;    0,000
582,944;  164,688;  -42,343;    0,000
583,101; 1565,091; 1057,457;    0,000
583,257;  887,893;  435,257;    0,000
583,413;  468,296; -123,742;    0,000
583,570; 1013,699;  158,258;    0,000
583,726; 1130,301;  291,058;    0,000
583,882;  991,704;  502,458;    0,000
584,039;  111,706; -114,342;    0,000
584,195;  192,709;  156,859;    0,000
584,351;  637,912;  687,659;    0,000
584,508;  570,114;  650,259;    0,000
584,664;  107,117;  -11,141;    0,000
584,820;  343,720;   87,659;    0,000
584,977;  820,722;  437,660;    0,000
585,133; 1370,325; 1037,460;    0,000
585,289;  114,927;  -17,940;    0,000
585,446;   99,730;  188,460;    0,000
585,602;  387,333;  404,860;    0,000
585,758;  510,135;  534,461;    0,000
585,915;  115,738;   81,261;    0,000
586,071;  620,340;  419,061;    0,000
586,227; 1030,543;  806,461;    0,000
586,383;  578,546;  405,261;    0,000
586,539; -122,652; -198,538;    0,000
586,696;  415,151;  237,862;    0,000
586,852;  871,954;  307,662;    0,000
587,008; 1457,956;  883,662;    0,000
587,164;  263,159; -127,538;    0,000
587,321;  424,761;  324,663;    0,000
587,477;  630,764;  538,463;    0,000
587,633; 1037,367;  930,663;    0,000
587,789;  -25,431; -248,137;    0,000
587,945;  194,972;   11,463;    0,000
588,101;  -20,026; -176,137;    0,000
588,258; 1008,377;  398,864;    0,000
588,414;  742,180; -124,336;    0,000
588,570;  821,782;  127,864;    0,000
588,726; 1691,585;  631,064;    0,000
588,882; 1352,388;  252,064;    0,000
589,038;  763,390;   50,465;    0,000
589,194;  641,793;  289,665;    0,000
589,350;  813,195;  552,665;    0,000
589,506;  737,998;  672,665;    0,000
589,662;  182,001;  196,665;    0,000
589,818;   34,603;  106,866;    0,000
589,975;  464,606;  386,666;    0,000
590,131;  957,608;  970,666;    0,000
590,287;  -23,789;  -55,334;    0,000
590,443;  215,214;  229,466;    0,000
590,599;  634,016;  646,067;    0,000
590,755;  459,819;  443,867;    0,000
590,911;  166,822;   60,667;    0,000
591,067;  176,424;   91,467;    0,000
591,223;  653,027;  614,667;    0,000
591,379; 1008,029;  882,668;    0,000
591,535;  581,832;   86,668;    0,000
591,691;  504,435;   70,668;    0,000
591,847;  494,437;  191,668;    0,000
592,003; 1076,840;  792,468;    0,000
592,158;  109,242;  -83,531;    0,000
592,314;  463,645;  374,069;    0,000
592,470;  569,248;  403,669;    0,000
592,626;  661,250;  560,669;    0,000
592,782;  142,453;   -0,331;    0,000
592,938;  407,656; -103,330;    0,000
593,094; 1145,058;  251,270;    0,000
593,250; 1288,861;  653,870;    0,000
593,406;  259,063;   43,070;    0,000
593,562;  499,866;  224,470;    0,000
593,717; 1092,469;  236,071;    0,000
593,873; 1718,071;  678,071;    0,000
594,029;  488,874;  -50,329;    0,000
594,185;  449,076;  242,471;    0,000
594,341;  260,879;  108,271;    0,000
594,497;  665,482;  581,872;    0,000
594,652;  206,884;  -88,928;    0,000
594,808;  516,287;  128,072;    0,000
594,964;  787,490;  437,872;    0,000
595,120;  457,692;  436,472;    0,000
595,276;  210,495;  280,472;    0,000
595,431;  323,297;  373,873;    0,000
595,587;  492,500;  445,673;    0,000
595,743;  724,703;  523,673;    0,000
595,899;  548,105;  104,673;    0,000
596,054;  312,708;   53,073;    0,000
596,210;  651,310;  479,474;    0,000
596,366;  554,313;  473,074;    0,000
596,522;  209,516;   51,674;    0,000
596,677;  555,918;  193,474;    0,000
596,833;  938,721;  465,474;    0,000
596,989; 1223,924;  660,075;    0,000
597,144;  318,126;   18,875;    0,000
597,300;  467,329;  -10,125;    0,000
597,456; 1495,131;  591,475;    0,000
597,611; 1243,334;  507,675;    0,000
597,767;  300,137;   76,876;    0,000
597,923;  447,339;  263,876;    0,000
598,078; 1879,542; 1258,876;    0,000
598,234; 1210,144;  413,876;    0,000
598,389;  711,347;  302,276;    0,000
598,545;   99,150;    6,277;    0,000
598,701;  548,752;  437,077;    0,000
598,856;  902,555;  632,477;    0,000
599,012;  810,558;  514,277;    0,000
599,167;  189,760;  -44,723;    0,000
599,323;  725,763;  580,278;    0,000
599,479;  624,565;  556,678;    0,000
599,634;  583,568;  564,878;    0,000
599,790;  145,771;  178,078;    0,000
599,945;  527,773;  725,678;    0,000
600,101;  474,976;  501,279;    0,000
600,256;  615,378;  340,679;    0,000
600,412;  121,181;  -23,121;    0,000
600,567;  823,984;  610,879;    0,000
600,723;  760,586;  620,479;    0,000
600,878;   41,789;   24,080;    0,000
601,034;  245,992;  211,680;    0,000
601,189;  680,194;  578,080;    0,000
601,345;  484,197;  557,280;    0,000
601,500;  300,799;  269,480;    0,000
601,655;  473,602;    2,681;    0,000
601,811; 1476,205;  639,081;    0,000
601,966; 1708,007;  941,081;    0,000
602,122;  835,210;  122,681;    0,000
602,277;  870,812;  269,481;    0,000
602,433;  985,615;  597,481;    0,000
602,588; 1027,418;  524,282;    0,000
602,743;  714,220;  -73,518;    0,000
602,899;  899,623;   43,282;    0,000
603,054; 2102,426;  453,082;    0,000
603,209; 2317,628;  658,282;    0,000
603,365;  997,831;  197,683;    0,000
603,520;  299,433;   89,283;    0,000
603,675;  411,836;  368,083;    0,000
603,831;  745,439;  764,883;    0,000
603,986;  169,241;  141,483;    0,000
604,141;  418,844;  336,284;    0,000
604,297;  551,246;  293,884;    0,000
604,452;  594,049;  367,684;    0,000
604,607;  381,052;  174,684;    0,000
604,763;   27,654; -241,116;    0,000
604,918;  680,657;  570,485;    0,000
605,073;  510,260;  370,285;    0,000
605,228;  393,062;   19,685;    0,000
605,384;  880,465;  463,685;    0,000
605,539;  729,067;  233,485;    0,000
605,694;  761,070;  444,886;    0,000
605,849;  436,673;  235,086;    0,000
606,005;  405,075;  310,086;    0,000
606,160;  625,678;  410,086;    0,000
606,315; 1011,680;  671,486;    0,000
606,470; 1071,283;  637,087;    0,000
606,625;  519,886;   -2,913;    0,000
606,780; 1975,288; 1115,887;    0,000
606,936; 1563,091;  643,087;    0,000
607,091;  680,094;  -58,313;    0,000
607,246;  533,696;  126,888;    0,000
607,401;  616,499;  290,888;    0,000
607,556;  522,301;  314,688;    0,000
607,711;  218,104;   47,288;    0,000
607,866;  490,507;  111,088;    0,000
608,022;  927,709;  361,089;    0,000
608,177;  747,712;  463,089;    0,000
608,332;  463,314;  244,289;    0,000
608,487;  598,517;  394,489;    0,000
608,642;  412,520;  307,889;    0,000
608,797;  387,522;  269,690;    0,000
608,952;  581,525;   58,290;    0,000
609,107;  694,128;  270,490;    0,000
609,262;  478,130;  251,690;    0,000
609,417;  698,133;  384,690;    0,000
609,572;  452,135;  109,890;    0,000
609,727;  288,738;  134,091;    0,000
609,882;  530,941;  420,491;    0,000
610,037;  242,343;  383,091;    0,000
610,192;  -15,654;  154,291;    0,000
610,347;  155,548;  368,491;    0,000
610,502;  380,551;  574,892;    0,000
610,657;  418,954;  556,292;    0,000
610,812;   88,156;  190,092;    0,000
610,967;  -71,641;   55,092;    0,000
611,122;  201,962;  339,892;    0,000
611,277;  202,164;  320,293;    0,000
611,432; -230,633;  -37,307;    0,000
611,587; -261,431; -110,907;    0,000
611,742;  435,572;  357,893;    0,000
611,896;  678,575;  429,093;    0,000
612,051;  560,377;   41,894;    0,000
612,206;  583,180;  149,094;    0,000
612,361;  609,382;  438,094;    0,000
612,516;  421,385;  344,294;    0,000
612,671;  377,788;  106,294;    0,000
612,826;   63,990;  -67,505;    0,000
612,981;  719,993;  703,695;    0,000
613,135;  278,796;  180,095;    0,000
613,290;  429,998;  -31,905;    0,000
613,445; 1114,401;  170,495;    0,000
613,600;  989,203;  311,296;    0,000
613,755; 1052,406;  834,096;    0,000
613,909;   69,009;  -71,104;    0,000
614,064;  314,411;  165,696;    0,000
614,219;  768,614;  671,496;    0,000
614,374;  425,216;  413,097;    0,000
614,529;  198,619;  115,097;    0,000
614,683;  207,422;  183,097;    0,000
614,838;  297,024;  412,697;    0,000
614,993;  356,827;  491,697;    0,000
615,147;  155,030;  176,698;    0,000
615,302;  193,832;  158,498;    0,000
615,457;  375,035;  304,298;    0,000
615,612;  566,237;  346,898;    0,000
615,766;  312,440;  120,898;    0,000
615,921;  567,243;  281,698;    0,000
616,076;  955,445;  553,499;    0,000
616,230;  884,848;  677,699;    0,000
616,385;  364,250;  276,899;    0,000
616,540;   81,653;   77,099;    0,000
616,694;  718,056;  802,699;    0,000
616,849;  465,858;  502,100;    0,000
617,003;  -19,939;  -61,700;    0,000
617,158;  129,864;  119,300;    0,000
617,313;  811,066;  549,500;    0,000
617,467;  723,469;  379,700;    0,000
617,622;  227,071;   51,301;    0,000
617,776;   33,274;   44,701;    0,000
617,931;  413,877;  478,901;    0,000
618,086;  230,679;  217,301;    0,000
618,240;  833,482;  740,701;    0,000
618,395;  417,284;  461,502;    0,000
618,549;  594,487;  680,702;    0,000
618,704;  372,690;  531,902;    0,000
618,858; -405,708; -211,498;    0,000
619,013;  388,295;  642,302;    0,000
619,167;  368,698;  571,903;    0,000
619,322;  622,500;  778,703;    0,000
619,476;  249,703;  212,103;    0,000
619,631;  199,505;  -51,897;    0,000
619,785; 1310,708;  767,103;    0,000
619,940;  569,311;  179,304;    0,000
620,094;  374,513;  226,904;    0,000
620,249; -199,684; -121,496;    0,000
620,403;    8,918;  231,504;    0,000
620,558;  243,721;  395,504;    0,000
620,712;  -58,676;  152,905;    0,000
620,866;  -38,674;  191,905;    0,000
621,021;  440,929;  637,905;    0,000
621,175;  176,132;  400,505;    0,000
621,330;  642,134;  841,905;    0,000
621,484; -287,663;  -84,294;    0,000
621,638;  187,139;  326,706;    0,000
621,793;  434,142;  623,906;    0,000
621,947;  383,945;  424,506;    0,000
622,101;  306,347;  185,306;    0,000
622,256;  560,350;  385,307;    0,000
622,410;  886,552;  536,107;    0,000
622,564;  586,155;  331,107;    0,000
622,719;   32,158;   31,907;    0,000
622,873;  572,360;  532,907;    0,000
623,027;  363,163;  313,507;    0,000
623,182; -193,634; -254,892;    0,000
623,336;  321,568;  306,508;    0,000
623,490;  260,371;  175,908;    0,000
623,644;  405,173;  109,908;    0,000
623,799;  521,376;  260,108;    0,000
623,953;  363,579;  278,309;    0,000
624,107;  109,581;  126,309;    0,000
624,261;  -27,616;  128,109;    0,000
624,416; -144,214;  -38,491;    0,000
624,570;  -57,611;  -36,691;    0,000
624,724;  349,392;  317,510;    0,000
624,878;  162,594;  200,310;    0,000
625,032;  213,197;  316,510;    0,000
625,187; -184,400;   65,710;    0,000
625,341;   11,802;  113,110;    0,000
625,495;  338,805;  495,111;    0,000
625,649; -378,393; -240,689;    0,000
625,803;  135,010;  328,911;    0,000
625,957;  230,813;  368,911;    0,000
626,112;  403,815;  396,711;    0,000
626,266;  -51,982;   -2,088;    0,000
626,420; -186,580;  -51,488;    0,000
626,574;  518,023;  649,112;    0,000
626,728;  383,226;  440,912;    0,000
626,882;   24,628;  105,912;    0,000
627,036;  -19,969;   61,313;    0,000
627,190;  569,634;  673,913;    0,000
627,344;  401,636;  382,113;    0,000
627,498;  198,639;   90,313;    0,000
627,652;  213,441;  134,513;    0,000
627,806;  220,844;  202,314;    0,000
627,960;   32,847;  130,314;    0,000
628,114;   61,249;   95,714;    0,000
628,268;  -69,948;   14,114;    0,000
628,422;   77,854;   72,714;    0,000
628,576;  332,657;  337,915;    0,000
628,730;    9,460;   44,715;    0,000
628,884;  -20,738;   42,715;    0,000
629,038;  207,465;  315,915;    0,000
629,192;  161,668;  271,915;    0,000
629,346; -156,930;  -45,884;    0,000
629,500; -123,327;   35,116;    0,000
629,654;   63,675;   98,116;    0,000
629,808;  407,878;  351,316;    0,000
629,962;   88,881;  -48,884;    0,000
630,116;  255,283;  256,316;    0,000
630,270;  606,686;  563,317;    0,000
630,424;  160,488;  217,117;    0,000
630,578;   33,891;  134,517;    0,000
630,732; -233,306;  -74,083;    0,000
630,885;  -76,304;   41,317;    0,000
631,039;  147,099;  323,918;    0,000
631,193; -249,298; -136,682;    0,000
631,347; -179,696;  -33,882;    0,000
631,501;  342,107;  424,318;    0,000
631,655;  176,909;  209,518;    0,000
631,808; -171,488; -157,281;    0,000
631,962; -179,685; -104,481;    0,000
632,116;  248,517;  390,519;    0,000
632,270;  159,520;  298,919;    0,000
632,424;  -20,078;   69,119;    0,000
632,577;   89,525;   31,320;    0,000
632,731;  462,928;  322,120;    0,000
632,885;  515,730;  338,520;    0,000
633,039;   27,133;  -69,880;    0,000
633,192;    6,936;    7,720;    0,000
633,346;  412,138;  501,521;    0,000
633,500;  204,941;  361,921;    0,000
633,654;  -12,057;  111,521;    0,000
633,807;   25,346;   51,321;    0,000
633,961;  320,149;  332,921;    0,000
634,115;   26,151;   51,122;    0,000
634,268; -146,446;  -64,278;    0,000
634,422; -203,844;  -85,678;    0,000
634,576;  445,559;  542,922;    0,000
634,729;  115,562;  197,722;    0,000
634,883;  244,964;  385,523;    0,000
635,037;  -20,033;  110,323;    0,000
635,190;  177,770;  282,523;    0,000
635,344;  105,172;  294,123;    0,000
635,498; -210,425;  -51,077;    0,000
635,651;   79,577;  209,124;    0,000
635,805;    4,780;  163,524;    0,000
635,958;  380,383;  475,324;    0,000
636,112;  -81,415;  -12,876;    0,000
636,265;  146,788;  171,124;    0,000
636,419;  331,190;  302,725;    0,000
636,573;  130,593;  213,325;    0,000
636,726; -109,204;  -17,475;    0,000
636,880;   41,598;   95,925;    0,000
637,033;  339,801;  403,725;    0,000
637,187;  320,604;  407,125;    0,000
637,340;  294,006;  395,726;    0,000
637,494;  130,009;  203,326;    0,000
637,647;  292,611;  326,326;    0,000
637,801;  105,414;  160,726;    0,000
637,954;  -87,783; -127,874;    0,000
638,108; -137,381; -166,273;    0,000
638,261;   98,022;  157,527;    0,000
638,415;    7,424;   65,127;    0,000
638,568; -287,773; -202,473;    0,000
638,721;   32,030;  135,127;    0,000
638,875;  408,032;  484,928;    0,000
639,028;  463,235;  490,728;    0,000
639,182;  -84,362;  -48,272;    0,000
639,335;  237,840;  195,328;    0,000
639,489;  314,643;  325,928;    0,000
639,642;    9,845;  -53,071;    0,000
639,795;  105,648;   74,929;    0,000
639,949; -113,349; -162,471;    0,000
640,102;  352,453;  303,329;    0,000
640,255;  209,056;  194,129;    0,000
640,409; -191,942; -181,670;    0,000
640,562;   93,261;  104,730;    0,000
640,715;  127,664;  189,730;    0,000
640,869;  327,666;  417,730;    0,000
641,022;   62,469;  103,130;    0,000
641,175;  -69,128;  -46,069;    0,000
641,329;  185,474;  216,731;    0,000
641,482;  255,077;  286,731;    0,000
641,635;   57,879;   80,731;    0,000
641,788;  225,482;  265,931;    0,000
641,942;  151,685;  196,932;    0,000
642,095;  236,287;  284,532;    0,000
642,248;  -81,310;  -57,868;    0,000
642,401;   72,492;   63,732;    0,000
642,555;  480,095;  518,932;    0,000
642,708;  731,298;  691,333;    0,000
642,861;  -60,100; -140,467;    0,000
643,014;  -86,697;  -89,467;    0,000
643,167;  332,706;  254,733;    0,000
643,321;  651,508;  575,333;    0,000
643,474;  104,311;   46,334;    0,000
643,627;  293,713;  251,334;    0,000
643,780;  207,116;  207,134;    0,000
643,933;  583,919;  515,534;    0,000
644,086;  130,721;   70,334;    0,000
644,239;   -8,876;  -28,466;    0,000
644,393;  310,126;  340,335;    0,000
644,546;   99,529;   93,935;    0,000
644,699; -208,468; -230,665;    0,000
644,852;  -63,866;  -37,865;    0,000
645,005;  517,137;  517,135;    0,000
645,158;  214,340;  170,936;    0,000
645,311;  384,342;  318,536;    0,000
645,464;   41,945;  -10,064;    0,000
645,617;  327,347;  277,336;    0,000
645,770;  118,750;  105,336;    0,000
645,923;  -27,247;  -50,063;    0,000
646,076;  130,955;  108,137;    0,000
646,229;  308,358;  233,337;    0,000
646,382;   19,560;  -19,063;    0,000
646,535;  242,763;  141,337;    0,000
646,688;  -28,434;  -79,662;    0,000
646,841;  570,368;  450,538;    0,000
646,994;  162,971;  164,738;    0,000
647,147; -158,626; -229,462;    0,000
647,300;  117,176;   64,538;    0,000
647,453;  478,779;  422,139;    0,000
647,606;  225,181;  167,739;    0,000
647,759;  232,384;  106,339;    0,000
647,912;   39,987;   40,139;    0,000
648,065;  439,389;  303,739;    0,000
648,218;  711,192;  618,740;    0,000
648,371;   57,794;  -10,860;    0,000
648,524;  -82,003; -145,060;    0,000
648,676;  184,400;   51,940;    0,000
648,829;  595,602;  323,340;    0,000
648,982;   83,205; -127,659;    0,000
649,135;  211,208;   83,741;    0,000
649,288;  424,210;  290,341;    0,000
649,441;  322,413;   64,941;    0,000
649,594;  443,415;  111,541;    0,000
649,746;  778,018;  465,542;    0,000
649,899;  595,221;  243,942;    0,000
650,052;  620,023;  355,542;    0,000
650,205;   71,426; -230,858;    0,000
650,358;  298,628;   31,542;    0,000
650,510;  330,031;   76,143;    0,000
650,663;  122,434;  -35,457;    0,000
650,816;  275,236;  148,543;    0,000
650,969; -259,761; -448,257;    0,000
651,121;  517,442;  392,543;    0,000
651,274;  180,044;   75,343;    0,000
651,427;   71,247;  -20,056;    0,000
651,580;  250,049;  120,944;    0,000
651,732;  421,252;  226,144;    0,000
651,885;  230,655;   20,144;    0,000
652,038;  212,657;   22,744;    0,000
652,190;  509,060;  331,545;    0,000
652,343;  259,062;   16,545;    0,000
652,496;  476,465;  199,145;    0,000
652,648;  178,868; -105,455;    0,000
652,801;  248,870;   46,345;    0,000
652,954;  375,273;  144,546;    0,000
653,106;  480,676;  204,946;    0,000
653,259;  286,678;   -3,454;    0,000
653,411;  292,281; -122,654;    0,000
653,564;  612,883;   76,346;    0,000
653,717;  961,486;  246,547;    0,000
653,869;  703,089; -112,653;    0,000
654,022; 1186,291;  341,147;    0,000
654,174; 1291,694;  258,947;    0,000
654,327; 1405,096;   96,947;    0,000
654,480; 1500,099; -166,052;    0,000
654,632; 2628,502;  773,748;    0,000
654,785; 2053,304;  101,748;    0,000
654,937; 2816,707;  459,748;    0,000
655,090; 3320,710;  -71,252;    0,000
655,242; 5341,512;   74,749;    0,000
655,395; 8198,115;  366,549;    0,000
655,547;13650,317;   87,949;    0,000
655,700;27502,320; -176,851;    0,000
655,852;60280,323; -175,451;    0,000
656,005;62547,925;  280,550;    0,000
656,157;62531,328;  176,350;    0,000
656,309;62547,930;  311,750;    0,000
656,462;62531,333;  438,950;    0,000
656,614;62547,936;  450,150;    0,000
656,767;62531,338;  373,751;    0,000
656,919;62547,941;  -74,649;    0,000
657,072;62531,344;   -3,449;    0,000
657,224;62547,946;  202,751;    0,000
657,376;62531,349;    1,351;    0,000
657,529;62547,951; -339,649;    0,000
657,681;62531,354; -194,248;    0,000
657,833;62547,957;  -59,248;    0,000
657,986;62531,359;  236,552;    0,000
658,138;62547,962;  -25,648;    0,000
658,290;62531,364; -111,648;    0,000
658,443;62547,967;  -31,047;    0,000
658,595;62531,370;  206,753;    0,000
658,747;62547,972; -106,847;    0,000
658,900;62393,975;  254,953;    0,000
659,052;22057,578; -468,847;    0,000
659,204; 4426,380;   29,754;    0,000
659,357; 3307,383; -171,446;    0,000
659,509; 2549,785; -330,246;    0,000
659,661; 2684,388;  105,154;    0,000
659,813; 2352,791;  221,754;    0,000
659,966; 1778,993; -201,445;    0,000
660,118; 1573,396; -181,045;    0,000
660,270; 1826,198;  231,955;    0,000
660,422; 1579,801;  168,155;    0,000
660,574; 1048,404; -305,845;    0,000
660,727; 1283,606;  134,156;    0,000
660,879; 1131,209;  -69,444;    0,000
661,031; 1105,212;   41,556;    0,000
661,183;  697,014; -265,844;    0,000
661,335;  753,817; -101,244;    0,000
661,487; 1193,219;  240,557;    0,000
661,640; 1010,822;   88,157;    0,000
661,792;  908,025;   91,157;    0,000
661,944; 1278,027;  510,957;    0,000
662,096;  780,630;   35,957;    0,000
662,248;  702,232;   28,958;    0,000
662,400;  990,435;  333,158;    0,000
662,552;  256,038; -289,642;    0,000
662,704;  572,840;   10,758;    0,000
662,856;  511,643;   -1,642;    0,000
663,009;  448,046;  -66,641;    0,000
663,161;  166,848; -341,041;    0,000
663,313;  606,451;  133,959;    0,000
663,465;  735,253;  318,759;    0,000
663,617;  510,656;   55,359;    0,000
663,769;  415,859;   20,960;    0,000
663,921;  192,661; -205,640;    0,000
664,073;  325,264;  -27,640;    0,000
664,225;  287,066;  -83,240;    0,000
664,377;  624,669;  330,360;    0,000
664,529;  693,072;  321,560;    0,000
664,681;  304,074;   42,361;    0,000
664,833;  407,277;   60,561;    0,000
664,985;  253,680;  -70,239;    0,000
665,136;   83,482; -200,439;    0,000
665,288;  409,485;  114,161;    0,000
665,440;  202,687; -101,438;    0,000
665,592;  101,290; -126,438;    0,000
665,744;  210,093; -106,638;    0,000
665,896;  129,695;  -43,438;    0,000
666,048;  230,698;  -58,638;    0,000
666,200;  417,500;  191,763;    0,000
666,352;  354,103;   95,763;    0,000
666,504;  345,106;  139,963;    0,000
666,655;  325,708;   96,763;    0,000
666,807;  -82,489; -285,237;    0,000
666,959;  -11,286; -250,836;    0,000
667,111;  104,516;  -83,236;    0,000
667,263;  295,119;   54,364;    0,000
667,415;  349,721;  225,964;    0,000
667,566;  468,924;  238,964;    0,000
667,718;  -73,673; -289,435;    0,000
667,870;  160,729;  -40,035;    0,000
668,022;  280,532;   45,765;    0,000
668,173;   24,334; -223,835;    0,000
668,325;  374,937;  224,365;    0,000
668,477;  407,140;  202,766;    0,000
668,629;  328,942;  176,966;    0,000
668,780;  355,145;  139,966;    0,000
668,932;  422,548;  226,566;    0,000
669,084;  291,950;   75,966;    0,000
669,236;  254,553;   98,167;    0,000
669,387;  357,555;  144,967;    0,000
669,539;   15,358; -175,833;    0,000
669,691;   71,761; -164,833;    0,000
669,842;   59,963;  -95,233;    0,000
669,994;  737,966;  525,368;    0,000
670,146;  366,968;  191,968;    0,000
670,297;   98,971;   -9,632;    0,000
670,449;  -49,226; -231,432;    0,000
670,601;  526,176;  254,768;    0,000
670,752;  214,979;   58,169;    0,000
670,904;   89,782;  -80,631;    0,000
671,055;   22,384; -134,031;    0,000
671,207;  569,187;  439,569;    0,000
671,359;  221,589;   94,569;    0,000
671,510; -143,808; -321,231;    0,000
671,662;  254,995;   73,770;    0,000
671,813;  205,997;  -18,630;    0,000
671,965;  439,400;  322,170;    0,000
672,116;   97,202;  -12,430;    0,000
672,268;  -76,595; -223,230;    0,000
672,419;  382,008;  243,771;    0,000
672,571;  343,810;  207,171;    0,000
672,722;  129,613;    7,971;    0,000
672,874;   55,016;  -31,229;    0,000
673,025;  -17,382; -155,029;    0,000
673,177;  190,421;  103,572;    0,000
673,328;  192,023;   43,572;    0,000
673,480; -143,574; -280,628;    0,000
673,631;  404,029;  297,972;    0,000
673,783;  211,631;  154,972;    0,000
673,934;   23,434;  -88,027;    0,000
674,086;   20,836;  -84,027;    0,000
674,237;   96,039;  -12,827;    0,000
674,388;  -10,558;  -35,827;    0,000
674,540; -142,356; -214,227;    0,000
674,691; -109,353; -186,626;    0,000
674,843;   50,450;   -0,426;    0,000
674,994;   97,852;  -19,226;    0,000
675,145; -181,345; -290,826;    0,000
675,297; -157,143; -207,226;    0,000
675,448;   22,060;  -87,425;    0,000
675,599;  309,463;  235,575;    0,000
675,751;  172,865;   63,575;    0,000
675,902;  120,668;   96,975;    0,000
676,053;  231,670;  163,975;    0,000
676,205;  255,873;  166,776;    0,000
676,356;  -54,924; -110,224;    0,000
676,507;  403,678;  341,376;    0,000
676,658; -145,519; -186,824;    0,000
676,810;  219,884;  116,976;    0,000
676,961;   25,086;  -70,823;    0,000
677,112;  176,889;   81,177;    0,000
677,263;  109,291;   39,777;    0,000
677,415;  162,894;  120,577;    0,000
677,566; -114,103; -237,823;    0,000
677,717; -145,501; -148,422;    0,000
677,868; -232,098; -265,422;    0,000
678,019;    9,904;  -37,222;    0,000
678,171;  -58,693;  -65,422;    0,000
678,322;  167,910;   85,578;    0,000
678,473;  -87,688; -183,822;    0,000
678,624;  111,715;   90,979;    0,000
678,775; -155,882; -207,821;    0,000
678,926;  -69,480; -103,821;    0,000
679,078;  143,923;   22,779;    0,000
679,229;  197,525;  186,979;    0,000
679,380;  158,128;   35,580;    0,000
679,531; -186,869; -199,020;    0,000
679,682; -172,867; -324,420;    0,000
679,833;  290,136;  262,780;    0,000
679,984;  682,538;  603,180;    0,000
680,135; -169,859; -230,219;    0,000
680,286;  270,944;  254,181;    0,000
680,437;  -70,654; -128,219;    0,000
680,588; -191,451; -284,419;    0,000
680,739;  -41,648; -116,019;    0,000
680,890; -225,846; -294,618;    0,000
681,041;  220,157;  204,382;    0,000
681,192;   21,359;  -50,818;    0,000
681,343; -258,638; -333,618;    0,000
681,494;  -87,235; -173,818;    0,000
681,645; -316,633; -337,217;    0,000
681,796;   54,370;   12,583;    0,000
681,947; -254,228; -314,617;    0,000
682,098;   34,575;   -4,217;    0,000
682,249;  216,378;  157,783;    0,000
682,400; -194,620; -247,016;    0,000
682,551;  168,783;  114,184;    0,000
682,702; -326,814; -451,016;    0,000
682,853;  -50,212; -112,416;    0,000
683,004;  226,791;  188,584;    0,000
683,155; -108,207; -128,615;    0,000
683,306;    3,796;  -87,015;    0,000
683,456;   -6,001;   -5,215;    0,000
683,607;  -42,799; -114,215;    0,000
683,758; -240,196; -311,215;    0,000
683,909;  466,006;  382,986;    0,000
684,060;    3,609; -104,014;    0,000
684,211;  159,212;   79,586;    0,000
684,361; -135,386; -153,014;    0,000
684,512;  -38,183; -146,414;    0,000
684,663;  -81,780;  -61,213;    0,000
684,814;   33,422;  -43,013;    0,000
684,965; -220,575; -285,813;    0,000
685,115; -119,773; -126,213;    0,000
685,266;  147,230;   61,787;    0,000
685,417;  -12,767;  -75,413;    0,000
685,568;   -6,565;    3,788;    0,000
685,718;  215,238;  229,988;    0,000
685,869; -216,760; -231,012;    0,000
686,020;  355,243;  284,388;    0,000
686,171; -104,554; -144,012;    0,000
686,321; -146,352; -170,411;    0,000
686,472;  -81,149; -139,411;    0,000
686,623;  237,654;  161,389;    0,000
686,773;  123,856;  131,989;    0,000
686,924;  -20,141;  -86,811;    0,000
687,075;   76,661;   63,590;    0,000
687,225; -155,136; -193,410;    0,000
687,376;  326,667;  348,790;    0,000
687,527;  397,469;  387,190;    0,000
687,677;  351,272;  328,190;    0,000
687,828;  268,274;  213,191;    0,000
687,978;   68,477;  -10,609;    0,000
688,129; -287,920; -325,609;    0,000
688,280;  132,282;   97,991;    0,000
688,430;    0,885;  -11,409;    0,000
688,581;  120,488;  103,392;    0,000
688,731;  284,290;  245,192;    0,000
688,882;   98,693;   15,392;    0,000
689,032;  215,295;  182,192;    0,000
689,183;  -90,102; -137,408;    0,000
689,334;  -45,299;  -79,007;    0,000
689,484;    8,903;    8,593;    0,000
689,635; -131,494; -198,207;    0,000
689,785;    6,708;  -30,407;    0,000
689,936;  352,711;  228,193;    0,000
690,086; -105,486; -159,806;    0,000
690,236;  336,716;  280,594;    0,000
690,387;   49,319;   11,994;    0,000
690,537;  201,522;  137,794;    0,000
690,688;   86,724;   36,594;    0,000
690,838;  -25,473;  -88,805;    0,000
690,989;  395,929;  395,795;    0,000
691,139; -283,868; -346,005;    0,000
691,290;   -6,265;  -29,605;    0,000
691,440;  222,937;  174,595;    0,000
691,590; -229,660; -241,804;    0,000
691,741; -202,258; -236,804;    0,000
691,891; -345,255; -382,804;    0,000
692,041;  -39,852;  -89,604;    0,000
692,192;  -75,850;  -73,404;    0,000
692,342;  -87,847; -165,604;    0,000
692,492;  444,756;  431,997;    0,000
692,643; -181,842; -204,403;    0,000
692,793;   61,161;   90,597;    0,000
692,943;   45,163;   42,397;    0,000
693,094;  232,766;  198,397;    0,000
693,244;   73,569;   34,798;    0,000
693,394;  -67,229;  -99,802;    0,000
693,545;  -12,226;  -80,602;    0,000
693,695; -122,224; -151,202;    0,000
693,845;  473,579;  420,398;    0,000
693,995; -149,618; -195,001;    0,000
694,146; -103,816; -180,401;    0,000
694,296; -126,013; -158,201;    0,000
694,446;  274,790;  179,799;    0,000
694,596;  191,992;  188,599;    0,000
694,746; -144,005; -208,000;    0,000
694,897; -161,803; -206,000;    0,000
695,047;  279,400;  266,400;    0,000
695,197; -118,600; -155,600;    0,000
695,347;  281,600;  209,800;    0,000
695,497;  161,200;  149,200;    0,000
695,647;  -63,200; -188,400;    0,000
695,798; -247,000; -279,800;    0,000
695,948;  216,600;  197,800;    0,000
696,098;  110,200;   26,800;    0,000
696,248; -160,200; -179,600;    0,000
696,398;   13,000;   -6,600;    0,000
696,548;   61,000;  -33,000;    0,000
696,698; -190,000; -166,000;    0,000
696,848;  142,000;  113,400;    0,000
696,998;  596,200;  577,000;    0,000
697,148;  817,000;  690,200;    0,000
697,298; -103,000;  -95,000;    0,000
697,448;  262,200;  289,600;    0,000
697,599;   45,200;    7,200;    0,000
697,749; -211,800; -250,000;    0,000
697,899;  133,400;  100,400;    0,000
698,049; -130,600; -198,200;    0,000
698,199;  -68,200; -128,800;    0,000
698,349;  -92,400; -151,400;    0,000
698,498; -333,400; -389,400;    0,000
698,648;  135,600;   69,000;    0,000
698,798;  123,000;   73,000;    0,000
698,948;  -46,000; -137,200;    0,000
699,098;  -95,400; -128,200;    0,000
699,248;  177,200;  107,000;    0,000
699,398;   34,200;   10,200;    0,000
699,548;  -16,200;  -92,600;    0,000
699,698; -219,600; -197,800;    0,000
699,848; -226,600; -319,800;    0,000
699,998;   -1,400;  -75,000;    0,000
700,148; -150,400; -273,600;    0,000
700,297; 4049,200; 3890,200;    0,000
700,447;  331,200;  307,400;    0,000
700,597;  234,600;  299,400;    0,000
700,747;  406,600;  341,400;    0,000
700,897;  263,000;  207,600;    0,000
701,047;  107,800;   30,600;    0,000
701,196;  -92,400;  -65,800;    0,000
701,346;   63,600;  -32,600;    0,000
701,496; -118,800; -159,800;    0,000
701,646;   26,000;  -16,600;    0,000
701,796;   24,400;   58,200;    0,000
701,945;  385,600;  370,600;    0,000
702,095;  197,400;  153,800;    0,000
702,245;  -97,200; -128,200;    0,000
702,395;  104,200;  120,200;    0,000
702,544; -108,000; -101,200;    0,000
702,694;  -54,200; -124,000;    0,000
702,844; -107,400; -188,000;    0,000
702,994; -224,000; -232,600;    0,000
703,143;  127,400;   65,200;    0,000
703,293;  198,800;  185,800;    0,000
703,443;  -19,000;  -97,000;    0,000
703,592; -175,800; -215,000;    0,000
703,742;  160,000;  168,800;    0,000
703,892;    8,600;  -20,400;    0,000
704,041; -230,000; -297,600;    0,000
704,191;  136,600;  158,400;    0,000
704,340;  -14,200;  -96,800;    0,000
704,490;  -15,400;  -77,400;    0,000
704,640;   36,400;  -31,800;    0,000
704,789;  263,000;  239,800;    0,000
704,939;   83,000;  -14,800;    0,000
705,088;  278,400;  229,400;    0,000
705,238; -176,200; -211,200;    0,000
705,388;  274,600;  244,600;    0,000
705,537;  141,800;   59,200;    0,000
705,687;  -59,000;  -72,600;    0,000
705,836;  -23,600;  -64,200;    0,000
705,986; -231,800; -245,600;    0,000
706,135;  -19,800;  -66,600;    0,000
706,285; -118,400; -136,400;    0,000
706,434;  330,600;  307,200;    0,000
706,584;  278,200;  312,400;    0,000
706,733;    9,200;  -34,000;    0,000
706,883; -234,400; -235,600;    0,000
707,032;  -96,200;  -93,000;    0,000
707,181;   36,000;  -33,200;    0,000
707,331; -225,600; -215,000;    0,000
707,480;  166,200;  119,800;    0,000
707,630; -318,200; -336,000;    0,000
707,779; -139,400; -119,200;    0,000
707,929;  -37,600; -129,800;    0,000
708,078;   16,000;   10,800;    0,000
708,227; -110,600; -165,000;    0,000
708,377;  -93,600;  -99,800;    0,000
708,526; -128,600; -183,000;    0,000
708,675;   39,600;   45,200;    0,000
708,825;  -11,200;  -49,800;    0,000
708,974; -327,200; -382,400;    0,000
709,123;  479,200;  436,400;    0,000
709,273;  176,400;  146,600;    0,000
709,422;   88,200;   48,000;    0,000
709,571; -201,200; -173,600;    0,000
709,721;  303,400;  229,200;    0,000
709,870;    2,800;  -96,400;    0,000
710,019;   67,400;   44,000;    0,000
710,169;  -71,000;  -83,800;    0,000
710,318;  307,800;  279,000;    0,000
710,467;   81,200;   49,400;    0,000
710,616;   79,400;   21,800;    0,000
710,765; -178,000; -197,000;    0,000
710,915;  -65,600; -110,000;    0,000
711,064;  118,200;   17,600;    0,000
711,213;   48,400;    5,600;    0,000
711,362; -171,000; -238,200;    0,000
711,512;  155,800;   80,600;    0,000
711,661;  -50,800;  -45,800;    0,000
711,810;  199,200;  109,400;    0,000
711,959; -150,200; -151,600;    0,000
712,108;   85,400;   24,800;    0,000
712,257; -108,200; -104,800;    0,000
712,406;   23,400;   24,800;    0,000
712,556;  -78,400; -116,200;    0,000
712,705;   16,400;  -49,600;    0,000
712,854;  147,200;   71,400;    0,000
713,003; -128,400; -133,400;    0,000
713,152; -114,200; -195,000;    0,000
713,301; -100,800; -138,400;    0,000
713,450; -412,400; -406,800;    0,000
713,599;  -66,000;  -46,200;    0,000
713,748;   25,000;  -36,000;    0,000
713,897; -257,800; -298,800;    0,000
714,046;   41,000;   67,000;    0,000
714,195;   52,200;   45,800;    0,000
714,344;  -45,600;  -56,800;    0,000
714,493; -217,400; -283,800;    0,000
714,642;  -75,400;  -68,400;    0,000
714,791;  134,600;  103,800;    0,000
714,940;  -33,200;  -45,600;    0,000
715,089;  -72,800; -158,000;    0,000
715,238;   31,200;   40,800;    0,000
715,387;  144,800;   70,600;    0,000
715,536;  133,400;   93,600;    0,000
715,685;  -62,600; -111,200;    0,000
715,834;   79,400;   22,400;    0,000
715,983;   15,200;  -20,000;    0,000
716,132; -261,800; -290,800;    0,000
716,280;   98,600;  146,400;    0,000
716,429; -121,000; -100,400;    0,000
716,578;  -19,400;  -67,400;    0,000
716,727;   19,200; -100,000;    0,000
716,876;  -28,400; -106,800;    0,000
717,025;   78,600;   54,200;    0,000
717,174;  -94,800; -144,000;    0,000
717,322; -141,800; -151,000;    0,000
717,471;  -56,200;  -68,600;    0,000
717,620;   97,000;   35,400;    0,000
717,769;  135,400;   80,800;    0,000
717,918;   61,200;  -70,400;    0,000
718,066; -171,600; -274,600;    0,000
718,215;  -47,400; -128,800;    0,000
718,364;  -70,000; -159,200;    0,000
718,513;    8,200;  -25,200;    0,000
718,661; -167,400; -229,400;    0,000
718,810;  -46,600;  -71,000;    0,000
718,959;  309,200;  262,000;    0,000
719,108;  -74,200;  -99,200;    0,000
719,256; -414,800; -367,200;    0,000
719,405;  119,600;   90,200;    0,000
719,554;  251,400;  159,600;    0,000
719,702; -201,400; -253,800;    0,000
719,851; -182,600; -231,800;    0,000
720,000; -226,200; -280,600;    0,000
720,148; -207,200; -213,600;    0,000
720,297; -314,000; -386,200;    0,000
720,446; -309,400; -306,400;    0,000
720,594; -273,000; -249,200;    0,000
720,743;  -55,000; -162,800;    0,000
720,891;  112,200;   84,000;    0,000
721,040;  -53,800; -151,800;    0,000
721,189;   14,600;  -28,400;    0,000
721,337;  -56,000;  -96,400;    0,000
721,486;   84,800;   30,600;    0,000
721,634;  -83,000; -133,600;    0,000
721,783;  -39,000;  -53,600;    0,000
721,931;  143,400;   29,000;    0,000
722,080;  274,200;  245,600;    0,000
722,228;  351,600;  291,600;    0,000
722,377; -212,000; -243,200;    0,000
722,525;   26,400;  -45,400;    0,000
722,674;   96,400;   53,600;    0,000
722,822;  236,600;  103,600;    0,000
722,971;   17,400; -124,400;    0,000
723,119;  430,800;  344,000;    0,000
723,268; -446,400; -487,200;    0,000
723,416;  512,800;  478,200;    0,000
723,565; -269,800; -316,600;    0,000
723,713;  241,000;  123,400;    0,000
723,862;  -72,200; -150,200;    0,000
724,010; -164,400; -266,200;    0,000
724,158;  -56,400; -132,600;    0,000
724,307; -113,000; -207,000;    0,000
724,455;   -6,000;  -80,600;    0,000
724,604;   32,800;  -14,800;    0,000
724,752; -121,800; -122,200;    0,000
724,900;  198,600;  172,800;    0,000
725,049; -366,200; -452,600;    0,000
725,197;  104,400;  -20,000;    0,000
725,345;  -22,000; -133,400;    0,000
725,494;  -66,000;  -90,800;    0,000
725,642; -160,600; -210,400;    0,000
725,790;  -57,200; -119,800;    0,000
725,938;  -90,400; -139,000;    0,000
726,087;  186,000;   36,800;    0,000
726,235;  -30,200;  -92,000;    0,000
726,383;   -4,600; -142,000;    0,000
726,531; -122,600; -182,200;    0,000
726,680; -368,000; -416,600;    0,000
726,828;  -33,800; -143,600;    0,000
726,976;    0,000; -199,000;    0,000
727,124; -151,800; -245,800;    0,000
727,273;  -18,000; -114,800;    0,000
727,421;  -95,800;  -98,600;    0,000
727,569;  170,200;  170,400;    0,000
727,717;  148,800;  150,200;    0,000
727,865; -151,800; -205,800;    0,000
728,013;  -87,200; -162,200;    0,000
728,162;  191,200;  160,600;    0,000
728,310; -104,600; -118,400;    0,000
728,458;  212,000;  151,800;    0,000
728,606;   65,400;   -2,400;    0,000
728,754;  -26,800;  -90,600;    0,000
728,902; -291,400; -364,600;    0,000
729,050;   99,800;   16,800;    0,000
729,198;  192,400;  201,600;    0,000
729,346; -243,200; -321,600;    0,000
729,495; -179,400; -268,000;    0,000
729,643; -272,400; -351,000;    0,000
729,791;   67,400;  -14,400;    0,000
729,939;  -38,000; -103,000;    0,000
730,087;  -54,400;  -27,000;    0,000
730,235;  -16,400; -100,000;    0,000
730,383;    9,000;   -8,600;    0,000
730,531;   19,200;  -70,400;    0,000
730,679;  157,000;   65,800;    0,000
730,827;    5,000; -161,800;    0,000
730,975;   78,400;  -36,800;    0,000
731,123;   43,400;   -9,200;    0,000
731,271; -380,600; -476,000;    0,000
731,419;   73,400;    1,200;    0,000
731,566;  102,000;   50,400;    0,000
731,714;  237,000;  125,200;    0,000
731,862; -287,000; -348,400;    0,000
732,010;    4,800;  -55,400;    0,000
732,158; -175,000; -182,200;    0,000
732,306;  190,200;  165,600;    0,000
732,454; -207,200; -212,000;    0,000
732,602;  108,000;  -27,000;    0,000
732,750;  -48,000; -124,600;    0,000
732,897;  -95,400; -172,200;    0,000
733,045;   58,600;   53,800;    0,000
733,193;  616,400;  594,600;    0,000
733,341;  214,800;  155,800;    0,000
733,489;  265,200;  216,000;    0,000
733,637; -255,000; -272,200;    0,000
733,784;  -92,200; -157,000;    0,000
733,932;   40,600;   15,200;    0,000
734,080;  -31,400;  -74,800;    0,000
734,228;  -94,400; -126,200;    0,000
734,375;  156,200;   96,200;    0,000
734,523; -110,000; -138,800;    0,000
734,671;  170,400;  110,400;    0,000
734,819; -174,200; -260,600;    0,000
734,966;  339,000;  196,000;    0,000
735,114; -298,000; -363,000;    0,000
735,262;  482,200;  402,200;    0,000
735,409;  184,400;   67,600;    0,000
735,557; -235,000; -333,200;    0,000
735,705;   46,000;   10,400;    0,000
735,852; -207,200; -306,800;    0,000
736,000;  -26,600;  -73,200;    0,000
736,148; -183,200; -282,200;    0,000
736,295;  -72,200;  -69,400;    0,000
736,443;  492,200;  491,600;    0,000
736,591; -171,400; -139,000;    0,000
736,738;  -22,800;  -70,600;    0,000
736,886; -241,800; -260,200;    0,000
737,033;  -86,800; -117,600;    0,000
737,181; -126,200; -176,200;    0,000
737,329;    5,000;  -63,000;    0,000
737,476; -147,000; -167,800;    0,000
737,624;   18,200;  -62,600;    0,000
737,771; -292,200; -307,000;    0,000
737,919;   12,600;  -86,200;    0,000
738,066; -321,600; -292,600;    0,000
738,214; -236,400; -264,000;    0,000
738,361;  -78,000; -135,200;    0,000
738,509;  -96,600; -134,400;    0,000
738,656;   76,200;   36,600;    0,000
738,804; -239,600; -301,000;    0,000
738,951; -250,200; -259,200;    0,000
739,099;   34,600;   -5,600;    0,000
739,246;  -37,200;  -71,000;    0,000
739,394;    9,000;  -34,600;    0,000
739,541;   44,600;  -62,000;    0,000
739,688;   67,000;  -28,000;    0,000
739,836;  135,800;  122,600;    0,000
739,983;   54,800;   23,200;    0,000
740,131;  284,000;  286,000;    0,000
740,278;  -39,200;  -66,600;    0,000
740,425;  -38,200;  -39,800;    0,000
740,573;  -88,200;  -87,600;    0,000
740,720;  -75,000; -134,800;    0,000
740,867; -243,000; -270,400;    0,000
741,015;   -8,800;  -59,800;    0,000
741,162;  -11,400; -136,000;    0,000
741,309; -343,800; -286,600;    0,000
741,457;  156,400;  155,400;    0,000
741,604; -127,000; -109,200;    0,000
741,751;  106,800;   69,800;    0,000
741,898;  338,200;  299,600;    0,000
742,046;  197,400;  150,200;    0,000
742,193;  118,800;  106,600;    0,000
742,340;  143,800;  153,000;    0,000
742,487; -272,000; -312,200;    0,000
742,635;   32,200;    5,800;    0,000
742,782;  -41,600;  -16,600;    0,000
742,929; -158,400; -158,600;    0,000
743,076;  276,000;  305,000;    0,000
743,224; -128,400; -191,600;    0,000
743,371; -293,400; -302,200;    0,000
743,518;   22,800;   11,200;    0,000
743,665;   98,600;   90,800;    0,000
743,812;   27,200;  -13,200;    0,000
743,959;  -42,600;  -38,400;    0,000
744,106;  -86,600; -138,600;    0,000
744,254;  -35,400;  -58,400;    0,000
744,401;  172,200;   91,200;    0,000
744,548;  -92,400; -134,800;    0,000
744,695;  203,800;   78,000;    0,000
744,842;  -40,800; -164,200;    0,000
744,989;  398,800;  284,800;    0,000
745,136; -347,400; -405,600;    0,000
745,283;  -45,000; -113,400;    0,000
745,430; -160,800; -250,200;    0,000
745,577;  -64,200;  -79,000;    0,000
745,724;  261,800;  243,000;    0,000
745,871;   42,400;  -24,800;    0,000
746,018;  -52,600; -130,600;    0,000
746,165;  585,400;  487,600;    0,000
746,312;   58,600;   39,400;    0,000
746,459;   30,200;  -37,800;    0,000
746,606;  327,400;  252,600;    0,000
746,753;  146,200;   57,000;    0,000
746,900;  -37,000; -128,600;    0,000
747,047;   23,600;   -7,400;    0,000
747,194; -243,800; -231,000;    0,000
747,341;  -67,800; -117,000;    0,000
747,488; -123,400; -209,000;    0,000
747,635;   17,000;  -49,200;    0,000
747,782;   35,800;  -54,400;    0,000
747,929;  -27,400;  -60,800;    0,000
748,076;  -75,000; -104,400;    0,000
748,222;  -33,400;  -81,200;    0,000
748,369;  178,800;  122,200;    0,000
748,516; -353,200; -433,600;    0,000
748,663;   59,600;   56,000;    0,000
748,810;   -0,200;  -58,200;    0,000
748,957;  -74,000; -137,800;    0,000
749,103;  145,800;  118,600;    0,000
749,250;  223,600;  211,000;    0,000
749,397;   69,000;   23,000;    0,000
749,544;  -67,400; -125,600;    0,000
749,691;  115,400;   65,200;    0,000
749,837; -278,400; -304,000;    0,000
749,984;  391,000;  372,800;    0,000
750,131; -154,000; -149,000;    0,000
750,278;   38,000;  -23,200;    0,000
750,424;  110,800;   83,800;    0,000
750,571;   78,200;    8,400;    0,000
750,718;   19,800;    8,600;    0,000
750,864;   31,000;  -12,600;    0,000
751,011; -201,600; -214,800;    0,000
751,158;  207,800;  143,400;    0,000
751,304;  -14,400;  -19,000;    0,000
751,451;  -56,600;  -73,200;    0,000
751,598; -250,200; -219,200;    0,000
751,744; -196,000; -262,800;    0,000
751,891;  157,000;  203,400;    0,000
752,038;  253,600;  168,800;    0,000
752,184;  326,400;  228,000;    0,000
752,331;  146,400;   67,400;    0,000
752,477;  330,600;  209,400;    0,000
752,624; -301,600; -348,800;    0,000
752,771; -179,600; -178,800;    0,000
752,917;   76,400;   34,600;    0,000
753,064; -173,800; -200,400;    0,000
753,210; -106,200; -140,000;    0,000
753,357; -121,000; -171,600;    0,000
753,503;  102,600;   98,800;    0,000
753,650;  -87,000; -139,600;    0,000
753,796; -178,800; -265,400;    0,000
753,943; -208,200; -244,800;    0,000
754,089;  -11,600; -101,600;    0,000
754,236; -144,600; -172,200;    0,000
754,382;   91,400;    4,000;    0,000
754,529;  -73,800; -111,400;    0,000
754,675; -245,200; -308,800;    0,000
754,822; -422,400; -404,400;    0,000
754,968; -523,800; -535,400;    0,000
755,115; -152,400; -153,600;    0,000
755,261;  -90,400; -183,200;    0,000
755,407; -251,200; -186,200;    0,000
755,554;  132,400;  180,400;    0,000
755,700; -515,400; -552,800;    0,000
755,846;  230,600;  128,800;    0,000
755,993; -198,000; -230,800;    0,000
756,139;  -39,600; -104,000;    0,000
756,286; -241,000; -217,400;    0,000
756,432; -300,000; -361,200;    0,000
756,578; -101,400; -118,800;    0,000
756,725;   26,200;   -5,200;    0,000
756,871;  -64,000; -112,600;    0,000
757,017;  167,600;  139,800;    0,000
757,163; -170,000; -198,200;    0,000
757,310; -210,000; -202,000;    0,000
757,456;  -85,800; -137,000;    0,000
757,602; -199,000; -248,000;    0,000
757,748; -134,200; -192,400;    0,000
757,895;  -42,400;  -71,800;    0,000
758,041;  109,000;   17,800;    0,000
758,187;  326,200;  258,000;    0,000
758,333; -107,600; -153,000;    0,000
758,480; -283,400; -343,200;    0,000
758,626;  111,800;   45,800;    0,000
758,772;  -29,400;  -62,800;    0,000
758,918;   15,400;    7,000;    0,000
759,064; -485,200; -552,600;    0,000
759,210;  -55,600;  -99,000;    0,000
759,357;   44,800;  -47,200;    0,000
759,503;  -36,000; -203,600;    0,000
759,649;  209,000;   22,400;    0,000
759,795;   82,600;  -29,400;    0,000
759,941;  568,600;  495,000;    0,000
760,087;  -70,400; -138,400;    0,000
760,233;   13,200; -127,400;    0,000
760,379;   -9,800; -128,000;    0,000
760,525;  528,200;  468,600;    0,000
760,671;  -82,200; -115,000;    0,000
760,817; -171,600; -240,600;    0,000
760,963; -219,800; -221,000;    0,000
761,110; -190,800; -214,000;    0,000
761,256;  -69,600;  -90,400;    0,000
761,402; -304,600; -332,400;    0,000
761,548; -335,200; -334,200;    0,000
761,694;  107,800;   61,400;    0,000
761,840;  -18,800;  -21,600;    0,000
761,985;  184,400;  107,000;    0,000
762,131; -160,800; -214,800;    0,000
762,277;  196,400;   95,600;    0,000
762,423;  -64,200;  -87,200;    0,000
762,569;  -96,000; -169,800;    0,000
762,715;  -92,800;  -89,600;    0,000
762,861;   14,400;  -72,600;    0,000
763,007; -175,400; -232,400;    0,000
763,153;   62,000;   31,000;    0,000
763,299; -264,200; -265,800;    0,000
763,445; -201,200; -225,600;    0,000
763,591;  299,200;  293,200;    0,000
763,736; -126,000; -171,400;    0,000
763,882;   81,400;   78,200;    0,000
764,028;   35,200;   17,000;    0,000
764,174;  118,000;   62,600;    0,000
764,320;  112,400;   75,400;    0,000
764,466; -127,200; -201,600;    0,000
764,611;   92,600;   21,400;    0,000
764,757; -144,800; -161,600;    0,000
764,903; -150,800; -225,800;    0,000
765,049;  -51,400;  -81,800;    0,000
765,194;  190,600;  138,800;    0,000
765,340; -205,000; -272,000;    0,000
765,486; -143,000; -216,000;    0,000
765,632;  -49,000;  -81,200;    0,000
765,777;  129,400;   65,800;    0,000
765,923;  -22,000;  -97,000;    0,000
766,069; -206,400; -283,400;    0,000
766,214;   51,800;   42,000;    0,000
766,360;  -39,000; -135,000;    0,000
766,506; -206,200; -200,600;    0,000
766,651;  406,000;  394,800;    0,000
766,797; -132,400; -157,600;    0,000
766,943;  -55,200;  -75,200;    0,000
767,088;   36,600;   19,200;    0,000
767,234;  -34,200; -115,400;    0,000
767,380;   46,400;   43,000;    0,000
767,525;  -58,000;  -92,800;    0,000
767,671;   25,600;   92,800;    0,000
767,816;   -5,200;  -48,800;    0,000
767,962;   41,200;   34,000;    0,000
768,108;   45,800;   -0,200;    0,000
768,253;  -33,600;  -70,200;    0,000
768,399;  183,600;   51,600;    0,000
768,544;  114,600;   36,000;    0,000
768,690; -179,000; -223,000;    0,000
768,835;  -62,800; -110,200;    0,000
768,981;  230,200;   99,000;    0,000
769,126;  221,400;  116,000;    0,000
769,272;  167,600;   59,400;    0,000
769,417; -280,800; -338,000;    0,000
769,563;  -49,600;  -97,600;    0,000
769,708; -216,200; -202,200;    0,000
769,854; -114,400; -159,200;    0,000
769,999;  -26,200;  -96,800;    0,000
770,144; -299,600; -297,400;    0,000
770,290;   38,600;   33,400;    0,000
770,435; -103,200;  -71,800;    0,000
770,581;  156,800;  121,200;    0,000
770,726;  -98,400; -142,400;    0,000
770,871;  127,400;  122,000;    0,000
771,017;   -4,600;  -30,200;    0,000
771,162;  -19,200;  -17,400;    0,000
771,308;   62,400;   42,200;    0,000
771,453;  -94,800; -120,000;    0,000
771,598;  -62,200;  -70,400;    0,000
771,744; -184,000; -196,000;    0,000
771,889; -100,800; -134,000;    0,000
772,034; -151,200; -179,200;    0,000
772,179; -121,400; -202,200;    0,000
772,325; -108,000; -122,400;    0,000
772,470; -135,800; -192,800;    0,000
772,615;  274,200;  239,200;    0,000
772,761;  248,800;  194,400;    0,000
772,906;  -71,400;  -49,000;    0,000
773,051; -198,200; -251,200;    0,000
773,196;  -55,000; -120,200;    0,000
773,341;  251,200;  249,600;    0,000
773,487; -356,200; -364,400;    0,000
773,632;  -24,000;  -97,800;    0,000
773,777;   12,400;   61,600;    0,000
773,922; -170,000; -236,200;    0,000
774,067;  -47,800;  -49,600;    0,000
774,213; -219,200; -297,000;    0,000
774,358; -191,600; -270,400;    0,000
774,503; -211,600; -285,400;    0,000
774,648; -167,400; -192,000;    0,000
774,793;  154,800;  135,000;    0,000
774,938; -235,200; -248,400;    0,000
775,083;  211,800;  170,400;    0,000
775,228; -264,600; -291,400;    0,000
775,373; -144,400; -170,600;    0,000
775,519; -119,200; -160,200;    0,000
775,664;   58,000;  -51,200;    0,000
775,809; -338,400; -327,200;    0,000
775,954; -152,200; -150,400;    0,000
776,099; -106,400; -165,600;    0,000
776,244;  237,400;  170,400;    0,000
776,389; -145,400; -214,000;    0,000
776,534;  103,200;   69,400;    0,000
776,679;  138,000;  -47,000;    0,000
776,824;  148,000; -228,000;    0,000
776,969; 1405,600;    2,200;    0,000
777,114; 2097,200; -165,800;    0,000
777,259; 2324,600; -242,800;    0,000
777,404; 1903,800; -352,600;    0,000
777,548;  779,200; -436,800;    0,000
777,693;  666,800;  143,400;    0,000
777,838;   89,400; -171,200;    0,000
777,983;  117,000;   -7,800;    0,000
778,128; -388,000; -485,600;    0,000
778,273;  157,400;   82,800;    0,000
778,418; -101,000; -139,800;    0,000
778,563; -207,000; -267,800;    0,000
778,708;   17,400;  -72,800;    0,000
778,852; -113,600; -238,600;    0,000
778,997; -218,000; -293,200;    0,000
779,142; -158,800; -217,400;    0,000
779,287;  162,800;  106,200;    0,000
779,432; -130,000; -132,000;    0,000
779,577; -145,600; -132,600;    0,000
779,721;  428,600;  403,800;    0,000
779,866;  -39,400;  -35,600;    0,000
780,011;  296,400;  261,600;    0,000
780,156; -419,200; -402,600;    0,000
780,300;   52,200;  -18,400;    0,000
780,445; -199,000; -184,600;    0,000
780,590; -172,400; -272,000;    0,000
780,735; -228,800; -225,200;    0,000
780,879;   95,200;   56,200;    0,000
781,024;  -57,600;  -76,000;    0,000
781,169;  -90,400; -141,000;    0,000
781,313;  240,000;  216,000;    0,000
781,458;   55,800;   16,000;    0,000
781,603; -368,400; -420,600;    0,000
781,747;  -25,600;  -27,400;    0,000
781,892;  -79,600; -125,400;    0,000
782,037; -124,000; -160,800;    0,000
782,181;  -98,600; -120,800;    0,000
782,326;   -0,400;  -26,200;    0,000
782,470;  -83,600;  -92,200;    0,000
782,615;   45,000;   -2,000;    0,000
782,760;   92,400;   75,400;    0,000
782,904;  -87,200; -132,800;    0,000
783,049; -215,000; -207,800;    0,000
783,193;  517,800;  497,800;    0,000
783,338; -119,000; -138,200;    0,000
783,482;  -47,400;  -66,000;    0,000
783,627; -179,800; -169,200;    0,000
783,771;  214,600;  204,200;    0,000
783,916; -227,000; -278,200;    0,000
784,060;  -39,600;  -60,400;    0,000
784,205;  -28,400;  -80,200;    0,000
784,349; -303,400; -304,200;    0,000
784,494;  186,800;  217,600;    0,000
784,638; -114,800; -181,600;    0,000
784,783; -119,200; -129,400;    0,000
784,927;  125,000;   11,000;    0,000
785,072;   11,400;   22,800;    0,000
785,216; -149,000; -186,200;    0,000
785,360; -277,800; -276,800;    0,000
785,505; -244,200; -316,800;    0,000
785,649; -392,800; -508,400;    0,000
785,793; -271,400; -346,400;    0,000
785,938;  232,400;  147,800;    0,000
786,082; -198,200; -226,600;    0,000
786,227;  320,800;  276,800;    0,000
786,371;   47,200;   12,800;    0,000
786,515; -298,600; -298,000;    0,000
786,660; -178,200; -147,000;    0,000
786,804;  -24,000;  -72,000;    0,000
786,948; -275,400; -306,400;    0,000
787,092; -250,800; -272,800;    0,000
787,237; -219,600; -243,600;    0,000
787,381;   78,200;   48,600;    0,000
787,525; -123,800; -182,800;    0,000
787,669; -283,200; -272,200;    0,000
787,814;   43,400;   13,800;    0,000
787,958; -262,200; -282,200;    0,000
788,102; -271,600; -326,600;    0,000
788,246;  -85,800;  -76,600;    0,000
788,391;  165,200;  104,000;    0,000
788,535; -216,800; -271,600;    0,000
788,679;  156,600;  119,600;    0,000
788,823; -267,400; -241,200;    0,000
788,967; -334,600; -364,800;    0,000
789,111;  133,800;  134,000;    0,000
789,256;   59,200;   23,400;    0,000
789,400; -333,400; -313,800;    0,000
789,544;  -42,200;  -97,800;    0,000
789,688;  -25,600;   30,400;    0,000
789,832;  320,000;  283,800;    0,000
789,976; -226,400; -231,000;    0,000
790,120;  -92,200; -172,800;    0,000
790,264; -172,600; -192,800;    0,000
790,408;  195,400;  219,200;    0,000
790,552; -344,000; -366,400;    0,000
790,696;   96,800;   96,400;    0,000
790,840; -163,200; -130,000;    0,000
790,984;  106,200;   40,800;    0,000
791,128;   96,400;  140,000;    0,000
791,272;  -26,600;  -99,200;    0,000
791,416;  161,600;  109,000;    0,000
791,560; -326,400; -353,000;    0,000
791,704; -202,000; -182,000;    0,000
791,848; -277,400; -301,000;    0,000
791,992;  -91,000;  -35,800;    0,000
792,136; -318,000; -324,000;    0,000
792,280; -141,200; -201,400;    0,000
792,424;   31,200;  -47,000;    0,000
792,568; -312,800; -324,800;    0,000
792,712;  -50,600;  -67,000;    0,000
792,856;  101,600;  124,400;    0,000
793,000;  -25,200;  -24,800;    0,000
793,144;  129,400;  115,400;    0,000
793,287;   64,400;   -1,200;    0,000
793,431; -139,800; -185,600;    0,000
793,575; -216,800; -277,400;    0,000
793,719;  112,600;  107,800;    0,000
793,863; -158,000; -169,200;    0,000
794,007;  -95,000; -106,600;    0,000
794,150;   56,000;    6,800;    0,000
794,294; -225,600; -251,800;    0,000
794,438; -204,000; -233,600;    0,000
794,582; -220,600; -247,600;    0,000
794,725; -126,600; -166,600;    0,000
794,869;  164,600;  151,800;    0,000
795,013;  173,600;  114,800;    0,000
795,157;   43,000;   22,600;    0,000
795,300; -145,400; -192,800;    0,000
795,444;  -85,800; -158,200;    0,000
795,588;   51,600;   19,200;    0,000
795,732;  -77,600; -111,000;    0,000
795,875;  153,200;  121,600;    0,000
796,019; -226,400; -275,600;    0,000
796,163;  -40,200; -149,600;    0,000
796,306;   55,600;   55,800;    0,000
796,450; -341,400; -380,800;    0,000
796,593;  361,000;  379,400;    0,000
796,737;  -11,200; -117,600;    0,000
796,881; -177,800; -256,000;    0,000
797,024;    9,200;   -3,600;    0,000
797,168; -330,200; -338,200;    0,000
797,311;   88,000;   51,000;    0,000
797,455;  -97,600; -136,000;    0,000
797,599;   22,000;   -9,400;    0,000
797,742; -558,600; -569,400;    0,000
797,886;   79,600;   -5,600;    0,000
798,029; -139,800; -171,600;    0,000
798,173; -250,800; -289,600;    0,000
798,316;  -60,000; -109,400;    0,000
798,460; -181,800; -260,600;    0,000
798,603;  332,600;  336,000;    0,000
798,747; -245,600; -304,600;    0,000
798,890;   30,200;   -6,400;    0,000
799,034;   16,000;   15,800;    0,000
799,177; -273,600; -335,400;    0,000
799,321;   45,200;   26,200;    0,000
799,464; -289,200; -289,200;    0,000
799,607;  -96,400; -118,800;    0,000
799,751; -125,600; -173,600;    0,000
799,894; -125,800; -183,800;    0,000
800,038; -167,200; -196,200;    0,000
800,181;  -82,400;  -99,000;    0,000
800,324;   53,000;   92,000;    0,000
800,468; -342,000; -409,400;    0,000
800,611;  212,400;  172,600;    0,000
800,754;  291,600;  229,600;    0,000
800,898; -147,000; -161,800;    0,000
801,041;  309,000;  251,600;    0,000
801,184;  129,000;  130,000;    0,000
801,328;  -90,400; -226,200;    0,000
801,471; -232,800; -221,200;    0,000
801,614; -143,800; -217,800;    0,000
801,758; -367,000; -426,600;    0,000
801,901; -176,200; -205,200;    0,000
802,044; -393,200; -414,000;    0,000
802,187; -253,600; -303,800;    0,000
802,331; -141,200; -201,800;    0,000
802,474;   95,200;   38,200;    0,000
802,617;  -18,000;  -34,000;    0,000
802,760;   21,000;   11,400;    0,000
802,903;  -31,600;  -17,600;    0,000
803,047; -337,600; -348,600;    0,000
803,190; -250,400; -303,200;    0,000
803,333;  205,000;  139,400;    0,000
803,476;  -89,200; -128,400;    0,000
803,619; -181,800; -178,000;    0,000
803,762;  359,200;  333,400;    0,000
803,906; -143,200; -168,400;    0,000
804,049;   33,800;   18,200;    0,000
804,192;  -93,200; -173,000;    0,000
804,335; -141,400; -197,000;    0,000
804,478; -341,200; -386,000;    0,000
804,621;  -80,600;  -92,600;    0,000
804,764;   19,800;   -4,600;    0,000
804,907; -179,800; -193,000;    0,000
805,050;   -4,000;  -56,800;    0,000
805,193;   81,800;   72,400;    0,000
805,336; -151,200; -178,800;    0,000
805,479;   62,600;  -48,400;    0,000
805,622;  -62,600;  -79,400;    0,000
805,765; -339,200; -341,200;    0,000
805,908;  272,800;  233,600;    0,000
806,051;    3,600;  -70,000;    0,000
806,194;  320,200;  271,800;    0,000
806,337; -399,400; -384,800;    0,000
806,480;   99,200;   76,600;    0,000
806,623; -154,800; -145,600;    0,000
806,766;   29,200;    5,600;    0,000
806,909; -131,800; -138,600;    0,000
807,052;  -67,400;  -86,400;    0,000
807,195; -278,400; -284,800;    0,000
807,338; -230,200; -238,400;    0,000
807,480; -544,200; -519,200;    0,000
807,623;  340,000;  325,400;    0,000
807,766; -144,600; -129,000;    0,000
807,909;   21,400;    4,800;    0,000
808,052;  115,800;   81,600;    0,000
808,195; -130,400; -155,800;    0,000
808,337;  330,400;  296,400;    0,000
808,480;  395,600;  345,400;    0,000
808,623;  -75,000;  -88,200;    0,000
808,766;  162,200;  109,800;    0,000
808,909;  285,200;  211,000;    0,000
809,051; -234,400; -350,000;    0,000
809,194; -129,800; -156,000;    0,000
809,337;   50,000;   53,400;    0,000
809,480;  -73,400; -133,400;    0,000
809,622;  116,200;   73,000;    0,000
809,765;  -97,800;  -88,800;    0,000
809,908; -104,800; -151,200;    0,000
810,050;  -58,600;  -80,600;    0,000
810,193; -101,200; -126,400;    0,000
810,336; -250,800; -290,200;    0,000
810,478;  148,200;   99,000;    0,000
810,621; -110,400;  -93,800;    0,000
810,764;   22,200;    3,400;    0,000
810,906; -377,200; -375,600;    0,000
811,049;   -3,400;  -22,800;    0,000
811,192;   37,000;   32,400;    0,000
811,334;  576,400;  501,200;    0,000
811,477; -109,000;  -98,600;    0,000
811,619; -116,400; -169,000;    0,000
811,762;  -37,000;  -41,800;    0,000
811,904; -107,200; -137,000;    0,000
812,047; -211,200; -245,800;    0,000
812,190;  -33,200;  -41,400;    0,000
812,332; -198,800; -233,200;    0,000
812,475; -129,800; -144,400;    0,000
812,617;   -8,200;  -16,800;    0,000
812,760;   40,200;   28,600;    0,000
812,902; -247,000; -255,200;    0,000
813,045; -190,800; -245,000;    0,000
813,187; -261,200; -318,600;    0,000
813,330; -157,200; -126,000;    0,000
813,472;  -39,600;   -5,200;    0,000
813,614;   23,400;    4,800;    0,000
813,757;   -5,200;  -52,400;    0,000
813,899;    0,400;  -44,800;    0,000
814,042;  285,000;  324,800;    0,000
814,184; -318,000; -341,400;    0,000
814,326; -255,600; -308,400;    0,000
814,469; -212,600; -271,600;    0,000
814,611; -323,600; -317,600;    0,000
814,754;  -17,600; -109,000;    0,000
814,896; -439,000; -399,600;    0,000
815,038; -382,000; -396,400;    0,000
815,181; -396,400; -381,800;    0,000
815,323; -153,600; -193,600;    0,000
815,465;  -35,600;   -8,000;    0,000
815,608;  344,000;  333,400;    0,000
815,750;  -21,000;  -61,600;    0,000
815,892;   58,000;   41,400;    0,000
816,034; -128,000; -164,600;    0,000
816,177;  -66,800;  -90,200;    0,000
816,319;  211,800;  158,200;    0,000
816,461;  -34,800;  -58,800;    0,000
816,603;  -73,200;  -55,600;    0,000
816,746;  -74,800;  -95,400;    0,000
816,888;  -60,800;  -67,000;    0,000
817,030;  -71,800;  -91,200;    0,000
817,172; -164,400; -196,200;    0,000
817,314; -247,400; -267,800;    0,000
817,457;  -33,200;  -60,600;    0,000
817,599;   76,200;   40,400;    0,000
817,741;   27,200;  -22,400;    0,000
817,883;  126,600;   50,200;    0,000
818,025; -238,800; -327,000;    0,000
818,167; -160,200; -186,800;    0,000
818,309;   68,000;   83,000;    0,000
818,451; -140,000; -187,200;    0,000
818,594;  -50,800;  -83,800;    0,000
818,736;  -73,800; -114,800;    0,000
818,878;  216,200;  211,800;    0,000
819,020; -167,800; -269,000;    0,000
819,162; -135,200; -113,400;    0,000
819,304; -159,600; -221,000;    0,000
819,446; -387,000; -412,600;    0,000
819,588;  -89,000; -101,000;    0,000
819,730;  184,000;  182,000;    0,000
819,872; -297,200; -327,600;    0,000
820,014; -114,800; -108,000;    0,000
820,156;  -68,000;  -99,600;    0,000
820,298; -194,800; -252,600;    0,000
820,440;  -37,200; -120,000;    0,000
820,582;  -18,600;  -64,400;    0,000
820,724; -414,400; -438,200;    0,000
820,866;  -23,000;   -8,400;    0,000
821,007; -296,800; -363,600;    0,000
821,149;  -41,400;  -67,600;    0,000
821,291; -339,600; -364,800;    0,000
821,433;   63,000;   40,600;    0,000
821,575;   37,800;   10,600;    0,000
821,717;    3,400;  -67,200;    0,000
821,859;  174,400;  147,000;    0,000
822,001;  -73,000; -140,000;    0,000
822,142; -152,000; -172,800;    0,000
822,284; -398,600; -380,400;    0,000
822,426; -122,400; -133,600;    0,000
822,568; -126,800; -182,200;    0,000
822,710; -165,600; -234,400;    0,000
822,851;   56,400;   59,600;    0,000
822,993; -138,800; -199,800;    0,000
823,135;  164,600;  129,600;    0,000
823,277; -345,800; -363,600;    0,000
823,418; -285,600; -271,200;    0,000
823,560; -196,200; -249,200;    0,000
823,702;    3,000;   -4,600;    0,000
823,844; -121,400; -176,400;    0,000
823,985;  -96,200; -137,800;    0,000
824,127; -136,000; -178,000;    0,000
824,269; -125,400; -136,400;    0,000
824,410;   -2,800;  -61,600;    0,000
824,552; -101,000; -140,800;    0,000
824,694;   17,800;  -12,600;    0,000
824,835; -256,200; -270,200;    0,000
824,977; -150,400; -209,600;    0,000
825,119; -264,800; -272,000;    0,000
825,260; -232,800; -298,800;    0,000
825,402;  129,800;  153,600;    0,000
825,543; -238,000; -268,800;    0,000
825,685;  -29,200;  -70,400;    0,000
825,826;  -63,200;  -64,800;    0,000
825,968; -205,200; -174,200;    0,000
826,110; -364,600; -427,200;    0,000
826,251;  304,600;  243,400;    0,000
826,393;   10,000;  -38,000;    0,000
826,534; -160,400; -144,400;    0,000
826,676; -106,200; -134,800;    0,000
826,817;   28,400;   26,000;    0,000
826,959;  338,000;  254,000;    0,000
827,100; -342,800; -354,400;    0,000
827,242;  116,800;   31,000;    0,000
827,383;  166,000;  143,400;    0,000
827,524;  -62,400; -113,800;    0,000
827,666;  205,400;  215,400;    0,000
827,807;  113,800;  117,000;    0,000
827,949;  -15,800; -119,600;    0,000
828,090;  -45,600;  -37,200;    0,000
828,232;   98,200;   75,200;    0,000
828,373; -104,800; -166,200;    0,000
828,514; -149,800; -167,000;    0,000
828,656;  167,000;  157,200;    0,000
828,797; -293,600; -331,000;    0,000
828,938;  -26,000;  -26,000;    0,000
829,080;  -94,800; -118,000;    0,000
829,221; -296,000; -342,000;    0,000
829,362; -388,600; -409,200;    0,000
829,504;  -33,400;  -87,800;    0,000
829,645; -271,400; -317,800;    0,000
829,786;  261,400;  205,000;    0,000
829,927;  -99,600; -142,200;    0,000
830,069; -253,800; -300,800;    0,000
830,210; -147,000; -139,800;    0,000
830,351;   -9,000;  -61,400;    0,000
830,492;  119,200;  101,600;    0,000
830,634;    2,600;  -47,400;    0,000
830,775;  125,800;   92,600;    0,000
830,916; -169,200; -220,400;    0,000
831,057;  490,600;  427,200;    0,000
831,198; -248,800; -325,400;    0,000
831,340; -290,400; -308,000;    0,000
831,481;    6,000;  -40,200;    0,000
831,622;   51,800;   28,400;    0,000
831,763; -265,400; -320,400;    0,000
831,904; -416,800; -407,800;    0,000
832,045;  229,200;  184,600;    0,000
832,186; -171,800; -223,800;    0,000
832,327;  194,600;  145,800;    0,000
832,469;   55,000;   31,400;    0,000
832,610;   -2,400;  -59,800;    0,000
832,751;  -79,400; -115,200;    0,000
832,892;  196,600;  160,200;    0,000
833,033; -196,600; -243,000;    0,000
833,174; -315,000; -346,200;    0,000
833,315; -138,400; -196,200;    0,000
833,456; -345,200; -357,600;    0,000
833,597;  -35,000;  -21,400;    0,000
833,738; -156,600; -223,600;    0,000
833,879; -438,000; -474,600;    0,000
834,020; -249,000; -226,000;    0,000
834,161;  -51,600;  -88,400;    0,000
834,302;  -63,200;  -76,400;    0,000
834,443; -281,200; -279,800;    0,000
834,584; -160,800; -195,000;    0,000
834,725; -328,200; -364,000;    0,000
834,865;  120,800;   72,400;    0,000
835,006;  -48,800;  -76,200;    0,000
835,147;  -73,600; -185,400;    0,000
835,288; -116,400; -105,600;    0,000
835,429;  169,200;   85,200;    0,000
835,570;   96,200;   89,800;    0,000
835,711;  193,200;  133,200;    0,000
835,852;   44,800;   72,800;    0,000
835,992; -164,600; -202,000;    0,000
836,133; -131,800; -169,000;    0,000
836,274;  281,800;  247,400;    0,000
836,415; -111,000; -156,200;    0,000
836,556;   68,400;   17,800;    0,000
836,696;   93,200;   72,200;    0,000
836,837;   -6,000;  -52,600;    0,000
836,978;  153,600;  118,000;    0,000
837,119;  310,200;  275,000;    0,000
837,259;  101,800;  115,000;    0,000
837,400; -197,400; -227,400;    0,000
837,541; -142,600; -198,000;    0,000
837,682;  263,400;  187,400;    0,000
837,822;   34,200;   18,200;    0,000
837,963; -399,400; -458,200;    0,000
838,104;  -89,200;  -65,400;    0,000
838,244; -382,800; -435,800;    0,000
838,385;   16,400;   -0,200;    0,000
838,526; -267,000; -341,800;    0,000
838,666;  215,400;  179,800;    0,000
838,807; -293,400; -358,400;    0,000
838,947; -259,200; -219,000;    0,000
839,088;  249,400;  173,400;    0,000
839,229;  -46,600;  -50,400;    0,000
839,369;  -53,600;  -49,400;    0,000
839,510;    4,400;  -42,400;    0,000
839,650;  -44,400; -105,600;    0,000
839,791; -260,200; -279,000;    0,000
839,931;   52,800;    6,400;    0,000
840,072; -228,400; -232,800;    0,000
840,212;   33,600;  -44,400;    0,000
840,353; -353,800; -376,200;    0,000
840,493; -134,800; -166,200;    0,000
840,634; -271,600; -276,000;    0,000
840,774; -164,200; -171,600;    0,000
840,915; -154,800; -176,600;    0,000
841,055;  -44,600; -142,600;    0,000
841,196; -215,000; -236,200;    0,000
841,336;   -9,200;  -81,200;    0,000
841,477; -251,400; -271,400;    0,000
841,617;   45,600;   31,600;    0,000
841,757;   69,800;   61,400;    0,000
841,898;  -14,800; -125,000;    0,000
842,038; -270,200; -334,200;    0,000
842,179; -233,000; -270,800;    0,000
842,319; -164,400; -149,800;    0,000
842,459; -329,800; -374,000;    0,000
842,600;  223,800;  189,600;    0,000
842,740; -182,000; -182,400;    0,000
842,880;   29,000;   41,000;    0,000
843,021;  299,400;  230,000;    0,000
843,161;  -84,800;  -81,000;    0,000
843,301; -152,000; -187,800;    0,000
843,442; -311,400; -326,800;    0,000
843,582;  -23,800;  -87,400;    0,000
843,722; -203,200; -246,200;    0,000
843,862;  222,600;  183,400;    0,000
844,003;  -21,600;  -65,800;    0,000
844,143;  289,200;  159,400;    0,000
844,283;  152,800; -140,800;    0,000
844,423; 1585,400;  114,600;    0,000
844,563; 2106,000;  -95,800;    0,000
844,704; 1254,800; -113,400;    0,000
844,844;  362,600;  -48,800;    0,000
844,984;  -66,000; -312,400;    0,000
845,124;   58,600;   -3,200;    0,000
845,264; -185,000; -269,400;    0,000
845,404;   50,000;   11,800;    0,000
845,544;    0,600;  -52,200;    0,000
845,685;  -20,400;  -89,800;    0,000
845,825;  -45,000;  -32,600;    0,000
845,965;   84,000;   68,800;    0,000
846,105;  279,800;  242,400;    0,000
846,245; -171,200; -188,400;    0,000
846,385;   83,600;   90,800;    0,000
846,525; -146,400; -207,800;    0,000
846,665;   54,000;   22,400;    0,000
846,805; -246,400; -265,400;    0,000
846,945;  151,400;   73,000;    0,000
847,085;   -8,600;   -3,000;    0,000
847,225;  122,600;   79,200;    0,000
847,365;   69,000;    1,600;    0,000
847,505; -126,800; -150,800;    0,000
847,645;  -17,200;   13,000;    0,000
847,785; -138,200; -234,200;    0,000
847,925;   14,000;   14,000;    0,000
848,065;  -64,200; -171,800;    0,000
848,205;  172,600;  180,000;    0,000
848,345; -283,400; -320,200;    0,000
848,485;  138,800;  135,600;    0,000
848,625;  -97,800; -123,400;    0,000
848,764;   -6,600;  -11,000;    0,000
848,904; -201,600; -256,000;    0,000
849,044;  -34,200;  -46,400;    0,000
849,184; -203,600; -244,200;    0,000
849,324;  -48,200;  -50,400;    0,000
849,464; -159,400; -234,400;    0,000
849,604;  -51,000;  -90,800;    0,000
849,743;  -70,600; -116,800;    0,000
849,883;  164,000;  158,400;    0,000
850,023; -464,400; -472,800;    0,000
850,163;  -57,800;  -63,600;    0,000
850,303; -184,400; -186,200;    0,000
850,442; -131,600; -117,600;    0,000
850,582; -208,000; -247,800;    0,000
850,722; -343,400; -341,600;    0,000
850,862;   -2,600;  -22,200;    0,000
851,001; -348,000; -425,800;    0,000
851,141;  196,800;  162,800;    0,000
851,281;   16,000;   44,000;    0,000
851,420; -207,600; -234,200;    0,000
851,560;  -97,400; -138,000;    0,000
851,700;   41,400;    7,400;    0,000
851,839;   50,800;  -11,800;    0,000
851,979;  477,000;  430,400;    0,000
852,119; -290,400; -364,000;    0,000
852,258;  313,600;  325,200;    0,000
852,398; -137,800; -121,000;    0,000
852,537; -137,400; -213,600;    0,000
852,677;  191,800;  187,600;    0,000
852,817;  -37,800; -100,000;    0,000
852,956;  -36,200;  -43,000;    0,000
853,096;  171,600;  133,600;    0,000
853,235; -244,000; -252,200;    0,000
853,375;    2,600;  -57,000;    0,000
853,514; -220,800; -265,400;    0,000
853,654; -220,800; -243,000;    0,000
853,793; -140,600; -154,800;    0,000
853,933; -130,800; -181,400;    0,000
854,072; -271,200; -265,000;    0,000
854,212;  -25,200;  -47,200;    0,000
854,351;  196,200;  183,200;    0,000
854,491;  197,000;   85,600;    0,000
854,630; -257,800; -296,200;    0,000
854,770; -149,600; -203,800;    0,000
854,909; -121,200; -135,800;    0,000
855,048;   55,400;   39,600;    0,000
855,188; -229,400; -250,000;    0,000
855,327; -107,000; -138,200;    0,000
855,467;    0,800;  -12,800;    0,000
855,606;  -82,800;  -64,000;    0,000
855,745;  151,800;  149,800;    0,000
855,885;  318,600;  297,400;    0,000
856,024; -316,800; -382,800;    0,000
856,163;   44,800;   -8,400;    0,000
856,303;    3,400;  -11,200;    0,000
856,442;  143,400;   66,800;    0,000
856,581; -166,000; -173,600;    0,000
856,721;   14,200;  -11,200;    0,000
856,860;   24,000;  -32,000;    0,000
856,999;  502,200;  474,000;    0,000
857,138; -194,800; -165,800;    0,000
857,278;  -39,600;  -40,400;    0,000
857,417;  -77,800;  -99,600;    0,000
857,556;   39,200;   24,200;    0,000
857,695;  -70,600; -120,800;    0,000
857,835;  235,600;  169,400;    0,000
857,974; -115,400; -201,600;    0,000
858,113; -235,000; -234,200;    0,000
858,252; -368,600; -382,800;    0,000

